Units are: observed wavelength (Ang), observed flux (10^-15 erg/s/cm^2/Ang)
       3322.0000     0.038336383
       3323.9500     0.039694451
       3325.9000     0.054942068
       3327.8500     0.067221704
       3329.8000     0.066689005
       3331.7500     0.056095150
       3333.7000     0.071195389
       3335.6500     0.057263180
       3337.6000     0.056892011
       3339.5500     0.079684986
       3341.5000     0.087975501
       3343.4500     0.062057646
       3345.4000     0.030131854
       3347.3500     0.048806387
       3349.3000     0.055714892
       3351.2500     0.080126944
       3353.2000     0.060523425
       3355.1500     0.037012762
       3357.1000     0.016374482
       3359.0501     0.033921759
       3361.0000     0.057201066
       3362.9500     0.049982371
       3364.9000     0.049690252
       3366.8500     0.057383098
       3368.8000     0.079598876
       3370.7500      0.10494595
       3372.7000     0.060111200
       3374.6500     0.057808302
       3376.6000     0.068700180
       3378.5500     0.068216398
       3380.5000     0.049843946
       3382.4500     0.073677611
       3384.4000     0.071308764
       3386.3500     0.046274589
       3388.3000     0.079621846
       3390.2500     0.061227093
       3392.2000     0.051416401
       3394.1500     0.066896858
       3396.1000     0.057025387
       3398.0500     0.044040604
       3400.0000     0.057088193
       3401.9500     0.063325705
       3403.9000     0.072791333
       3405.8500     0.076552558
       3407.8000     0.052467919
       3409.7500     0.074581567
       3411.7000     0.089948635
       3413.6500     0.060449895
       3415.6000     0.039070904
       3417.5500     0.052518294
       3419.5000     0.078490111
       3421.4500     0.064674716
       3423.4000     0.074053847
       3425.3500     0.080843565
       3427.3000     0.079120795
       3429.2500     0.074162046
       3431.2000     0.069709742
       3433.1500     0.082228744
       3435.1000     0.062686286
       3437.0500     0.073534438
       3439.0000     0.085036880
       3440.9500     0.081856729
       3442.9000     0.085615041
       3444.8500     0.067889226
       3446.8000     0.060934862
       3448.7500     0.078109949
       3450.7000     0.073878354
       3452.6500     0.054514696
       3454.6000     0.078414407
       3456.5500     0.064423857
       3458.5000     0.065156607
       3460.4500     0.093771664
       3462.4000     0.083167893
       3464.3499     0.080217730
       3466.3000     0.087566466
       3468.2500     0.067417234
       3470.2000     0.064290623
       3472.1500     0.073104744
       3474.1000     0.064061325
       3476.0500     0.073136620
       3478.0000     0.071214785
       3479.9500     0.061751426
       3481.9000     0.072073754
       3483.8500     0.078308642
       3485.8000     0.064716765
       3487.7500     0.083955561
       3489.7000     0.091559242
       3491.6500     0.067001909
       3493.6000     0.056477077
       3495.5500     0.063963567
       3497.5000     0.081318717
       3499.4500     0.047545149
       3501.4000     0.064511515
       3503.3500     0.073683680
       3505.3000     0.075049320
       3507.2500     0.062472990
       3509.2000     0.051637942
       3511.1500     0.060235349
       3513.1000     0.041790899
       3515.0500     0.044124178
       3517.0000     0.055762667
       3518.9500     0.047908879
       3520.9000     0.058888322
       3522.8500     0.064899489
       3524.8000     0.050542729
       3526.7500     0.042131181
       3528.7000     0.069944353
       3530.6500     0.077591449
       3532.6000     0.065468741
       3534.5500     0.067602443
       3536.5000     0.053588210
       3538.4500     0.045243629
       3540.4000     0.070853778
       3542.3500     0.080687034
       3544.3000     0.067917910
       3546.2500     0.067006776
       3548.2000     0.082828540
       3550.1500     0.074107564
       3552.1000     0.039549086
       3554.0500     0.061377493
       3556.0000     0.068238408
       3557.9500     0.060624461
       3559.9000     0.070183153
       3561.8500     0.089070509
       3563.8000     0.072199792
       3565.7500     0.076911016
       3567.7000     0.095824526
       3569.6500      0.10036746
       3571.6000     0.093501287
       3573.5500     0.094245623
       3575.5000      0.10208877
       3577.4500     0.093122000
       3579.4000     0.074028135
       3581.3500     0.086705213
       3583.3000     0.096565007
       3585.2500     0.089571872
       3587.2000     0.066250731
       3589.1500     0.077236472
       3591.1000     0.092850318
       3593.0500     0.093230175
       3595.0000     0.090296657
       3596.9500     0.075645607
       3598.9000     0.073794504
       3600.8500     0.091927954
       3602.8000     0.091357571
       3604.7500     0.092932310
       3606.7000     0.089880235
       3608.6500     0.084997182
       3610.6000     0.099358765
       3612.5500     0.092065113
       3614.5000     0.080135130
       3616.4500     0.090005386
       3618.4000     0.094431384
       3620.3500     0.073669734
       3622.3000     0.051514254
       3624.2500     0.068602052
       3626.2000     0.079853043
       3628.1500     0.085497928
       3630.1000     0.081096318
       3632.0500     0.086853495
       3634.0000     0.084479899
       3635.9500     0.061916470
       3637.9000     0.056789854
       3639.8500     0.067112535
       3641.8000     0.064959563
       3643.7500     0.066179182
       3645.7000     0.073387894
       3647.6500     0.077401368
       3649.6000     0.085951035
       3651.5500     0.091861469
       3653.5000     0.082191403
       3655.4500     0.066151025
       3657.4000     0.063798803
       3659.3500     0.066600114
       3661.3000     0.074370366
       3663.2500     0.077139874
       3665.2000     0.076151868
       3667.1500     0.079844570
       3669.1000     0.080100635
       3671.0500     0.084886498
       3673.0000     0.087704153
       3674.9500     0.076990948
       3676.9000     0.074206562
       3678.8500     0.090165983
       3680.8000     0.093784077
       3682.7500     0.081155709
       3684.7000     0.081305734
       3686.6500     0.087151907
       3688.6000     0.089389222
       3690.5500     0.092449739
       3692.5000     0.091755907
       3694.4500     0.091986572
       3696.4000      0.10950533
       3698.3500      0.12001920
       3700.3000      0.11639310
       3702.2500      0.11317457
       3704.2000      0.11370266
       3706.1500      0.11234757
       3708.1000      0.10275018
       3710.0500      0.10768276
       3712.0000      0.10856048
       3713.9500      0.10608925
       3715.9000      0.11335102
       3717.8500      0.11896671
       3719.8000      0.11484022
       3721.7500      0.10514152
       3723.7000      0.11429663
       3725.6500      0.12953833
       3727.6000      0.10843687
       3729.5500     0.093306626
       3731.5000      0.10684747
       3733.4500      0.10801103
       3735.4000      0.10808893
       3737.3500      0.12043848
       3739.3000      0.13332989
       3741.2500      0.13895305
       3743.2000      0.15362258
       3745.1500      0.16578823
       3747.1000      0.16363129
       3749.0500      0.15625874
       3751.0000      0.13649496
       3752.9500      0.11835921
       3754.9000      0.10293176
       3756.8500      0.10091762
       3758.8000      0.10773102
       3760.7500      0.10432093
       3762.7000      0.10151197
       3764.6500     0.095671035
       3766.6000     0.086211685
       3768.5500     0.088126524
       3770.5000     0.096981469
       3772.4500     0.096580466
       3774.4000     0.098123687
       3776.3500     0.094536787
       3778.3000     0.093923757
       3780.2500     0.087737445
       3782.2000     0.073553337
       3784.1500     0.079181463
       3786.1000     0.080153191
       3788.0500     0.073265106
       3790.0000     0.072567926
       3791.9500     0.068020178
       3793.9000     0.072865036
       3795.8500     0.073713186
       3797.8000     0.060561791
       3799.7500     0.053296103
       3801.7000     0.063072795
       3803.6500     0.063775507
       3805.6000     0.056959948
       3807.5500     0.060024359
       3809.5000     0.059496083
       3811.4500     0.055638600
       3813.4000     0.053764232
       3815.3500     0.051044737
       3817.3000     0.047394007
       3819.2500     0.054510818
       3821.2000     0.053470564
       3823.1500     0.050510391
       3825.1000     0.061172726
       3827.0500     0.049443597
       3829.0000     0.033895286
       3830.9500     0.040359796
       3832.9000     0.042060412
       3834.8500     0.047789232
       3836.8000     0.043235308
       3838.7500     0.027222990
       3840.7000     0.033195110
       3842.6500     0.038791398
       3844.6000     0.038381239
       3846.5500     0.035182559
       3848.5000     0.029699973
       3850.4500     0.033261846
       3852.4000     0.042411693
       3854.3500     0.039879002
       3856.3000     0.037107510
       3858.2500     0.040644229
       3860.2000     0.034345047
       3862.1500     0.033039971
       3864.1000     0.038937840
       3866.0500     0.043523774
       3868.0000     0.042967444
       3869.9500     0.037275683
       3871.9000     0.036567982
       3873.8500     0.041936826
       3875.8000     0.055291172
       3877.7500     0.056382670
       3879.7000     0.050567828
       3881.6500     0.058337136
       3883.6000     0.061866293
       3885.5500     0.057698393
       3887.5000     0.070213547
       3889.4500     0.076904778
       3891.4000     0.063109027
       3893.3500     0.065146550
       3895.3000     0.081716979
       3897.2500     0.085480028
       3899.2000     0.084306676
       3901.1500     0.089740588
       3903.1000     0.096905307
       3905.0500      0.10360155
       3907.0000      0.10912722
       3908.9500      0.11429698
       3910.9000      0.10275533
       3912.8500      0.10990871
       3914.8000      0.12650620
       3916.7500      0.12495511
       3918.7000      0.12638746
       3920.6500      0.14640993
       3922.6000      0.15673105
       3924.5500      0.14970852
       3926.5000      0.15395290
       3928.4500      0.16598104
       3930.4000      0.18390343
       3932.3500      0.18233103
       3934.3000      0.17039821
       3936.2500      0.17456219
       3938.2000      0.19694659
       3940.1500      0.20447406
       3942.1000      0.19988910
       3944.0500      0.20095625
       3946.0000      0.20866327
       3947.9500      0.19077897
       3949.9000      0.20964549
       3951.8500      0.21233069
       3953.8000      0.20629293
       3955.7500      0.21974520
       3957.7000      0.22316134
       3959.6500      0.20405370
       3961.6000      0.21339072
       3963.5500      0.22256768
       3965.5000      0.21444556
       3967.4500      0.21170973
       3969.4000      0.22309257
       3971.3500      0.22468163
       3973.3000      0.22337449
       3975.2500      0.22662443
       3977.2000      0.22834516
       3979.1500      0.21898888
       3981.1000      0.22126381
       3983.0500      0.22981989
       3985.0000      0.22134899
       3986.9500      0.22024621
       3988.9000      0.22541063
       3990.8500      0.25002328
       3992.8000      0.24946513
       3994.7500      0.25002140
       3996.7000      0.25214206
       3998.6500      0.24014502
       4000.6000      0.24075567
       4002.5500      0.23674024
       4004.5000      0.24755714
       4006.4500      0.25716975
       4008.4000      0.24636698
       4010.3500      0.25577545
       4012.3000      0.25937669
       4014.2500      0.26442955
       4016.2000      0.25557275
       4018.1500      0.24973280
       4020.1000      0.25292700
       4022.0500      0.25738008
       4024.0000      0.25986526
       4025.9500      0.26719672
       4027.9000      0.25139463
       4029.8500      0.24895278
       4031.8000      0.27220521
       4033.7500      0.26246747
       4035.7000      0.25705910
       4037.6500      0.25335217
       4039.6000      0.25811098
       4041.5500      0.25150886
       4043.5000      0.25729855
       4045.4500      0.26609798
       4047.4000      0.26824652
       4049.3500      0.25947074
       4051.3000      0.26721523
       4053.2500      0.26587364
       4055.2000      0.26066760
       4057.1500      0.27579808
       4059.1000      0.28637185
       4061.0500      0.26926342
       4063.0000      0.25818514
       4064.9500      0.26293589
       4066.9000      0.27795747
       4068.8500      0.28190532
       4070.8000      0.27039400
       4072.7500      0.26366376
       4074.7000      0.26098637
       4076.6500      0.25751624
       4078.6000      0.25426100
       4080.5500      0.23789589
       4082.5000      0.24126675
       4084.4500      0.23890476
       4086.4000      0.23098787
       4088.3500      0.23670102
       4090.3000      0.23406629
       4092.2500      0.21541900
       4094.2000      0.20890883
       4096.1500      0.20346976
       4098.1000      0.19895529
       4100.0500      0.21110265
       4102.0000      0.20430155
       4103.9500      0.19050745
       4105.9000      0.20973808
       4107.8500      0.20781181
       4109.8000      0.18202889
       4111.7500      0.18668403
       4113.7000      0.19183153
       4115.6500      0.18733883
       4117.6000      0.18240575
       4119.5500      0.17796818
       4121.5000      0.18510241
       4123.4500      0.17409952
       4125.4000      0.16822940
       4127.3500      0.15661861
       4129.3000      0.16458180
       4131.2500      0.17042017
       4133.2000      0.18228466
       4135.1500      0.18205138
       4137.1000      0.16344995
       4139.0500      0.16973200
       4141.0000      0.16485095
       4142.9500      0.16321841
       4144.9000      0.16003689
       4146.8500      0.17282781
       4148.8000      0.18321160
       4150.7500      0.17682321
       4152.7000      0.19791934
       4154.6500      0.20395970
       4156.6000      0.17631619
       4158.5500      0.17379826
       4160.5000      0.17643688
       4162.4500      0.19404502
       4164.4000      0.18308299
       4166.3500      0.18595311
       4168.3000      0.17294350
       4170.2500      0.17451959
       4172.2000      0.17571951
       4174.1500      0.18770203
       4176.1000      0.17598843
       4178.0500      0.15904941
       4180.0000      0.14554177
       4181.9500      0.15889263
       4183.9000      0.15710318
       4185.8500      0.15180953
       4187.8000      0.15197147
       4189.7500      0.13005946
       4191.7000      0.13422974
       4193.6500      0.15979849
       4195.6000      0.14648142
       4197.5500      0.15003354
       4199.5000      0.14233872
       4201.4500      0.15326685
       4203.4000      0.15704166
       4205.3500      0.16648118
       4207.3000      0.16932980
       4209.2500      0.15445513
       4211.2000      0.15884530
       4213.1500      0.17163203
       4215.1000      0.17210360
       4217.0500      0.16719206
       4219.0000      0.15993236
       4220.9500      0.16972266
       4222.9000      0.17972365
       4224.8500      0.17336099
       4226.8000      0.17520672
       4228.7500      0.19776290
       4230.7000      0.18771246
       4232.6500      0.18836118
       4234.6000      0.18843128
       4236.5500      0.18613181
       4238.5000      0.19120389
       4240.4500      0.19487795
       4242.4000      0.17966531
       4244.3500      0.19103777
       4246.3000      0.19515439
       4248.2500      0.18769922
       4250.2000      0.19858240
       4252.1500      0.17703844
       4254.1000      0.18452150
       4256.0500      0.18504592
       4258.0000      0.19441505
       4259.9500      0.20020142
       4261.9000      0.19232441
       4263.8500      0.21084541
       4265.8000      0.20931829
       4267.7500      0.19793209
       4269.7000      0.19262958
       4271.6500      0.20364522
       4273.6000      0.21597018
       4275.5500      0.21250283
       4277.5000      0.21114623
       4279.4500      0.22865598
       4281.4000      0.24152618
       4283.3500      0.23933282
       4285.3000      0.24095205
       4287.2500      0.23408374
       4289.2000      0.23718258
       4291.1500      0.22553656
       4293.1001      0.22913781
       4295.0500      0.24443100
       4297.0000      0.22952391
       4298.9500      0.23852476
       4300.9000      0.23975631
       4302.8500      0.23059654
       4304.8000      0.23629657
       4306.7500      0.24957607
       4308.7000      0.24152278
       4310.6500      0.23921269
       4312.6000      0.24321209
       4314.5500      0.24638834
       4316.5000      0.23727058
       4318.4500      0.24270259
       4320.4000      0.24186307
       4322.3500      0.24283998
       4324.3000      0.24595225
       4326.2500      0.24649396
       4328.2000      0.26305589
       4330.1500      0.24419661
       4332.1000      0.22645778
       4334.0500      0.23645832
       4336.0000      0.23695219
       4337.9500      0.23970938
       4339.9000      0.23312320
       4341.8500      0.23152527
       4343.8000      0.23434398
       4345.7500      0.24043607
       4347.7000      0.22855883
       4349.6500      0.23046047
       4351.6000      0.22947616
       4353.5500      0.21414771
       4355.5000      0.24260406
       4357.4500      0.26292243
       4359.4000      0.27209031
       4361.3500      0.26681929
       4363.3000      0.24632220
       4365.2500      0.23495918
       4367.2000      0.24385995
       4369.1500      0.25019079
       4371.1000      0.24797015
       4373.0500      0.25396012
       4375.0000      0.23782817
       4376.9500      0.23951358
       4378.9000      0.27351080
       4380.8500      0.26328348
       4382.8000      0.25751907
       4384.7500      0.25110008
       4386.7000      0.25787761
       4388.6500      0.24974497
       4390.6000      0.26138441
       4392.5500      0.26056553
       4394.5000      0.24422949
       4396.4500      0.25695438
       4398.3999      0.27163914
       4400.3500      0.25893925
       4402.3000      0.24393287
       4404.2500      0.25280372
       4406.2000      0.27054198
       4408.1500      0.27664704
       4410.1000      0.25181093
       4412.0500      0.25597997
       4414.0000      0.26074116
       4415.9500      0.26069205
       4417.9000      0.26872226
       4419.8500      0.26221760
       4421.8000      0.26288403
       4423.7500      0.27061690
       4425.7000      0.25969417
       4427.6500      0.26731622
       4429.6000      0.25532396
       4431.5500      0.23658258
       4433.5000      0.23981659
       4435.4500      0.25466882
       4437.4000      0.25999473
       4439.3500      0.24248686
       4441.3000      0.23921382
       4443.2500      0.24404715
       4445.2000      0.23775744
       4447.1500      0.24179842
       4449.1000      0.25036612
       4451.0500      0.23655786
       4453.0000      0.23521424
       4454.9500      0.21988878
       4456.9000      0.22365715
       4458.8500      0.23105171
       4460.8000      0.22862305
       4462.7500      0.23226195
       4464.7000      0.23310481
       4466.6500      0.24321348
       4468.6000      0.23361810
       4470.5500      0.23048818
       4472.5000      0.23086142
       4474.4500      0.24429150
       4476.4000      0.24879095
       4478.3500      0.24533638
       4480.3000      0.22615976
       4482.2500      0.22721117
       4484.2000      0.22350957
       4486.1500      0.23871692
       4488.1000      0.23548118
       4490.0500      0.23059690
       4492.0000      0.23769026
       4493.9500      0.24497101
       4495.9000      0.24902406
       4497.8500      0.25829720
       4499.8000      0.25498860
       4501.7500      0.25556934
       4503.7000      0.26714449
       4505.6500      0.27734046
       4507.6000      0.29118132
       4509.5500      0.29005589
       4511.5000      0.29460086
       4513.4500      0.31162676
       4515.4000      0.29436109
       4517.3500      0.32231167
       4519.3000      0.35310282
       4521.2500      0.38383937
       4523.2000      0.40105631
       4525.1500      0.41072550
       4527.1000      0.42177118
       4529.0500      0.44300435
       4531.0000      0.44383695
       4532.9500      0.44330741
       4534.9000      0.46492747
       4536.8500      0.45365448
       4538.8000      0.45790719
       4540.7500      0.48050775
       4542.7000      0.49152368
       4544.6500      0.48650136
       4546.6000      0.49290026
       4548.5500      0.49542713
       4550.5000      0.50510366
       4552.4500      0.51494234
       4554.4000      0.51026049
       4556.3500      0.51424526
       4558.3000      0.53287079
       4560.2500      0.53158713
       4562.2000      0.52878362
       4564.1500      0.53589683
       4566.1000      0.54268626
       4568.0500      0.55007920
       4570.0000      0.55906498
       4571.9500      0.56909295
       4573.9000      0.56857176
       4575.8500      0.54762776
       4577.8000      0.54029937
       4579.7500      0.54687172
       4581.7000      0.53931282
       4583.6500      0.52539564
       4585.6000      0.52529461
       4587.5500      0.54831178
       4589.5000      0.54958995
       4591.4500      0.54204328
       4593.4000      0.54360337
       4595.3500      0.53874476
       4597.3000      0.54024319
       4599.2500      0.53946056
       4601.2000      0.53605635
       4603.1500      0.53192861
       4605.1000      0.52396091
       4607.0500      0.52340513
       4609.0000      0.51150046
       4610.9500      0.50157254
       4612.9000      0.50500274
       4614.8500      0.48707403
       4616.8000      0.47830114
       4618.7500      0.48319381
       4620.7000      0.47675355
       4622.6500      0.47290956
       4624.6000      0.45924932
       4626.5500      0.45511584
       4628.5000      0.45549774
       4630.4500      0.44704862
       4632.4000      0.43283057
       4634.3500      0.42207689
       4636.3000      0.40410459
       4638.2500      0.40751703
       4640.2000      0.41923092
       4642.1500      0.42106900
       4644.1000      0.41110343
       4646.0500      0.40681094
       4648.0000      0.41043893
       4649.9500      0.40695753
       4651.9000      0.40090001
       4653.8500      0.40258533
       4655.8000      0.38048437
       4657.7500      0.37260478
       4659.7000      0.40124399
       4661.6500      0.39130322
       4663.6000      0.37109948
       4665.5500      0.37738407
       4667.5000      0.36923444
       4669.4500      0.36432106
       4671.4000      0.36038189
       4673.3500      0.37042103
       4675.3000      0.38413962
       4677.2500      0.36763954
       4679.2000      0.36614726
       4681.1500      0.36236555
       4683.1000      0.34832293
       4685.0500      0.35322079
       4687.0000      0.36583334
       4688.9500      0.36542857
       4690.9000      0.35186415
       4692.8500      0.35241165
       4694.8000      0.35333904
       4696.7500      0.34795461
       4698.7000      0.34617753
       4700.6500      0.35191416
       4702.6000      0.34542095
       4704.5500      0.33822209
       4706.5000      0.35412807
       4708.4500      0.34992331
       4710.4000      0.33827437
       4712.3500      0.33994693
       4714.3000      0.34614691
       4716.2500      0.33948126
       4718.2000      0.33722142
       4720.1500      0.32709788
       4722.1000      0.32000870
       4724.0500      0.31805029
       4726.0000      0.30481228
       4727.9500      0.30980886
       4729.9000      0.30981511
       4731.8500      0.30715979
       4733.8000      0.30370981
       4735.7500      0.29977752
       4737.7000      0.30215936
       4739.6500      0.30765484
       4741.6000      0.31760105
       4743.5500      0.29960277
       4745.5000      0.29457802
       4747.4500      0.29440809
       4749.4000      0.29323406
       4751.3500      0.29296699
       4753.3000      0.28362263
       4755.2500      0.28490174
       4757.2000      0.29511590
       4759.1500      0.30874465
       4761.1000      0.30027178
       4763.0500      0.28789031
       4765.0000      0.29258941
       4766.9500      0.31106091
       4768.9000      0.31850908
       4770.8500      0.31277037
       4772.8000      0.30303448
       4774.7500      0.30492244
       4776.7000      0.30994604
       4778.6500      0.31431320
       4780.6000      0.32160634
       4782.5500      0.31549568
       4784.5000      0.31699317
       4786.4500      0.31834963
       4788.4000      0.31429891
       4790.3500      0.31794564
       4792.3000      0.32071591
       4794.2500      0.32189825
       4796.2000      0.32692980
       4798.1500      0.32582702
       4800.1000      0.31177582
       4802.0500      0.31213474
       4804.0000      0.31891816
       4805.9500      0.31660024
       4807.9000      0.31684729
       4809.8500      0.32307722
       4811.8000      0.31424846
       4813.7500      0.30727445
       4815.7000      0.31005908
       4817.6500      0.29232910
       4819.6000      0.28018925
       4821.5500      0.28053720
       4823.5000      0.27967115
       4825.4500      0.27762070
       4827.4000      0.27416600
       4829.3500      0.27145246
       4831.3000      0.26272767
       4833.2500      0.25701032
       4835.2000      0.26271304
       4837.1500      0.26372128
       4839.1000      0.26099412
       4841.0500      0.25418307
       4843.0000      0.26331938
       4844.9500      0.26651691
       4846.9000      0.24862884
       4848.8500      0.24918721
       4850.8000      0.25461931
       4852.7500      0.25930756
       4854.7000      0.25754727
       4856.6500      0.25576001
       4858.6000      0.26986856
       4860.5500      0.27013037
       4862.5000      0.25779648
       4864.4500      0.25429548
       4866.4000      0.25765740
       4868.3500      0.26656724
       4870.3000      0.27789923
       4872.2500      0.27458836
       4874.2000      0.27536394
       4876.1500      0.27823603
       4878.1000      0.27343626
       4880.0500      0.29493322
       4882.0000      0.32545259
       4883.9500      0.33696776
       4885.9000      0.34153124
       4887.8500      0.34138106
       4889.8000      0.33709383
       4891.7500      0.33686808
       4893.7000      0.34000065
       4895.6500      0.35093277
       4897.6000      0.35748485
       4899.5500      0.35249713
       4901.5000      0.35676528
       4903.4500      0.35508934
       4905.4000      0.35744743
       4907.3500      0.35526285
       4909.3000      0.35955245
       4911.2500      0.37574167
       4913.2000      0.37858484
       4915.1500      0.37016774
       4917.1000      0.36823811
       4919.0500      0.36197117
       4921.0000      0.35264065
       4922.9500      0.35476849
       4924.9000      0.34830602
       4926.8500      0.34610047
       4928.8000      0.34387009
       4930.7500      0.33060609
       4932.7000      0.32467815
       4934.6500      0.31978084
       4936.6000      0.30235052
       4938.5500      0.28515102
       4940.5000      0.28407135
       4942.4500      0.29113696
       4944.4000      0.28537238
       4946.3500      0.27368740
       4948.3000      0.27370787
       4950.2500      0.27008790
       4952.2000      0.25981023
       4954.1500      0.26676331
       4956.1000      0.27000667
       4958.0500      0.25151821
       4960.0000      0.24971529
       4961.9500      0.25868221
       4963.9000      0.25180048
       4965.8500      0.25718907
       4967.8000      0.26404510
       4969.7500      0.25832939
       4971.7000      0.26936961
       4973.6500      0.27446482
       4975.6000      0.27814131
       4977.5500      0.28265971
       4979.5000      0.30260350
       4981.4500      0.33877738
       4983.4000      0.35279438
       4985.3500      0.34509488
       4987.3000      0.33696610
       4989.2500      0.33189802
       4991.2000      0.33783154
       4993.1500      0.34701680
       4995.1000      0.34269252
       4997.0500      0.35372470
       4999.0000      0.36817620
       5000.9500      0.36909037
       5002.9000      0.37745971
       5004.8500      0.38612340
       5006.8000      0.38708132
       5008.7500      0.37946924
       5010.7000      0.40345568
       5012.6500      0.41010257
       5014.6000      0.38893325
       5016.5500      0.39179025
       5018.5000      0.39462350
       5020.4500      0.39398440
       5022.4000      0.38922242
       5024.3500      0.38913378
       5026.3000      0.42218793
       5028.2500      0.50822825
       5030.2000      0.53956152
       5032.1500      0.47994803
       5034.1000      0.41301400
       5036.0500      0.36953411
       5038.0000      0.35538757
       5039.9500      0.35101482
       5041.9000      0.34783484
       5043.8500      0.33600100
       5045.8000      0.32621728
       5047.7500      0.32390376
       5049.7000      0.32323923
       5051.6500      0.32169995
       5053.6000      0.31460852
       5055.5500      0.30419754
       5057.5000      0.29504186
       5059.4500      0.28625319
       5061.4000      0.28189299
       5063.3500      0.27916920
       5065.3000      0.27130709
       5067.2500      0.25009721
       5069.2000      0.24540152
       5071.1500      0.23639452
       5073.1000      0.23550787
       5075.0500      0.24399566
       5077.0000      0.22474581
       5078.9500      0.21413766
       5080.9000      0.22225738
       5082.8500      0.21676097
       5084.8000      0.21274842
       5086.7500      0.22148655
       5088.7000      0.20837375
       5090.6500      0.20127941
       5092.6000      0.20434710
       5094.5500      0.21066477
       5096.5000      0.19596596
       5098.4500      0.20288019
       5100.4000      0.20779696
       5102.3500      0.21545561
       5104.3000      0.20765834
       5106.2500      0.20941065
       5108.2000      0.21155726
       5110.1500      0.21787373
       5112.1000      0.22298708
       5114.0500      0.23649483
       5116.0000      0.24816186
       5117.9500      0.24718998
       5119.9000      0.25451390
       5121.8500      0.27822216
       5123.8000      0.28954859
       5125.7500      0.29780754
       5127.7000      0.29456149
       5129.6500      0.28943969
       5131.6000      0.29489025
       5133.5500      0.31252833
       5135.5000      0.32584531
       5137.4500      0.32949548
       5139.4000      0.32962959
       5141.3500      0.32280734
       5143.3000      0.35242275
       5145.2500      0.36312865
       5147.2000      0.34686120
       5149.1500      0.35791991
       5151.1000      0.36102638
       5153.0500      0.37066872
       5155.0000      0.36789082
       5156.9500      0.36542252
       5158.9000      0.39334513
       5160.8500      0.39428771
       5162.8000      0.38202487
       5164.7500      0.39272564
       5166.7000      0.39644234
       5168.6500      0.39899212
       5170.6000      0.41232514
       5172.5500      0.40110683
       5174.5000      0.38505590
       5176.4500      0.40545173
       5178.4000      0.41556252
       5180.3500      0.42110782
       5182.3000      0.41438138
       5184.2500      0.40654215
       5186.2000      0.40410339
       5188.1500      0.41954673
       5190.1000      0.42983710
       5192.0500      0.41069921
       5194.0000      0.39904043
       5195.9500      0.40520881
       5197.9000      0.42301484
       5199.8500      0.43124104
       5201.8000      0.42885643
       5203.7500      0.42687583
       5205.7000      0.41647730
       5207.6500      0.41268266
       5209.6000      0.40665759
       5211.5500      0.40623073
       5213.5000      0.42633292
       5215.4500      0.43947359
       5217.4000      0.42963201
       5219.3500      0.41443709
       5221.3000      0.42499931
       5223.2500      0.44832711
       5225.2000      0.44521747
       5227.1501      0.43347366
       5229.1000      0.44144687
       5231.0500      0.44718063
       5233.0000      0.45808254
       5234.9500      0.45878569
       5236.9000      0.44377772
       5238.8500      0.44844766
       5240.8000      0.46037069
       5242.7500      0.46921228
       5244.7000      0.45623326
       5246.6500      0.44864030
       5248.6000      0.46552916
       5250.5500      0.46045515
       5252.5000      0.44406670
       5254.4500      0.44538705
       5256.4000      0.43935854
       5258.3500      0.44161129
       5260.3000      0.44381508
       5262.2500      0.43624895
       5264.2000      0.42506098
       5266.1500      0.43010602
       5268.1000      0.43300998
       5270.0500      0.42650795
       5272.0000      0.43439177
       5273.9500      0.41738480
       5275.9000      0.41642598
       5277.8500      0.42341115
       5279.8000      0.40581688
       5281.7500      0.41861272
       5283.7000      0.42232684
       5285.6500      0.40849860
       5287.6000      0.41037920
       5289.5500      0.42073391
       5291.5000      0.43785290
       5293.4500      0.41765694
       5295.4000      0.40390303
       5297.3500      0.42245769
       5299.3000      0.42583731
       5301.2500      0.42365316
       5303.2000      0.41358845
       5305.1500      0.42646241
       5307.1000      0.42799570
       5309.0500      0.39915528
       5311.0000      0.41141198
       5312.9500      0.42689200
       5314.9000      0.40640504
       5316.8500      0.39628280
       5318.8000      0.40234941
       5320.7500      0.41377214
       5322.7000      0.40934756
       5324.6500      0.40979576
       5326.6000      0.40661522
       5328.5500      0.40913317
       5330.5000      0.40541996
       5332.4499      0.40450485
       5334.4000      0.42147883
       5336.3500      0.41901596
       5338.3000      0.40423306
       5340.2500      0.41882168
       5342.2000      0.40922394
       5344.1500      0.39858204
       5346.1000      0.38672260
       5348.0500      0.40325837
       5350.0000      0.39736680
       5351.9500      0.38836923
       5353.9000      0.38655195
       5355.8500      0.37238589
       5357.8000      0.40366985
       5359.7500      0.39970909
       5361.7000      0.39695237
       5363.6500      0.37850719
       5365.6000      0.36929314
       5367.5500      0.37639125
       5369.5000      0.36442486
       5371.4500      0.35508470
       5373.4000      0.36723963
       5375.3500      0.37400450
       5377.3000      0.36174262
       5379.2500      0.36279578
       5381.2000      0.36248700
       5383.1500      0.37328953
       5385.1000      0.36088577
       5387.0500      0.37132126
       5389.0000      0.38339825
       5390.9500      0.37742382
       5392.9000      0.35433312
       5394.8500      0.35518798
       5396.8000      0.36372488
       5398.7500      0.35828806
       5400.7000      0.37640080
       5402.6500      0.35810707
       5404.6000      0.34328917
       5406.5500      0.35143647
       5408.5000      0.36444443
       5410.4500      0.36687717
       5412.4000      0.37819197
       5414.3500      0.36605577
       5416.3000      0.36285592
       5418.2500      0.35347711
       5420.2000      0.36052361
       5422.1500      0.35634884
       5424.1000      0.34860894
       5426.0500      0.34849765
       5428.0000      0.34721147
       5429.9500      0.35353666
       5431.9000      0.34893103
       5433.8500      0.34062896
       5435.8000      0.32531022
       5437.7500      0.31912005
       5439.7000      0.32395821
       5441.6500      0.31530127
       5443.6000      0.30808825
       5445.5500      0.30200283
       5447.5000      0.31874510
       5449.4500      0.30634915
       5451.4000      0.29723697
       5453.3500      0.29790931
       5455.3000      0.28723730
       5457.2500      0.28255431
       5459.2000      0.29537903
       5461.1500      0.27623292
       5463.1000      0.25819073
       5465.0500      0.25730349
       5467.0000      0.26923878
       5468.9500      0.26258052
       5470.9000      0.26994323
       5472.8500      0.26513326
       5474.8000      0.26737727
       5476.7500      0.26772566
       5478.7000      0.26615543
       5480.6500      0.26613364
       5482.6000      0.26043578
       5484.5500      0.26159338
       5486.5000      0.26383403
       5488.4500      0.27330920
       5490.4000      0.27410238
       5492.3500      0.29171697
       5494.3000      0.29194713
       5496.2500      0.30024686
       5498.2000      0.31135471
       5500.1500      0.30522632
       5502.1000      0.31111760
       5504.0500      0.31283272
       5506.0000      0.33251131
       5507.9500      0.31952090
       5509.9000      0.34287531
       5511.8500      0.37767428
       5513.8000      0.40204897
       5515.7500      0.35958561
       5517.7000      0.35283349
       5519.6500      0.36960275
       5521.6000      0.39734443
       5523.5500      0.38409564
       5525.5000      0.40107252
       5527.4500      0.40676584
       5529.4000      0.41568413
       5531.3500      0.41893343
       5533.3000      0.42868257
       5535.2500      0.44574452
       5537.2000      0.43829005
       5539.1500      0.44364037
       5541.1000      0.44612987
       5543.0500      0.44839158
       5545.0000      0.45670170
       5546.9500      0.44820792
       5548.9000      0.44603590
       5550.8500      0.45131495
       5552.8000      0.45270040
       5554.7500      0.45988305
       5556.7000      0.46004381
       5558.6500      0.47201552
       5560.6000      0.45626301
       5562.5500      0.44947231
       5564.5000      0.43870969
       5566.4500      0.42454726
       5568.4000      0.43868289
       5570.3500      0.42985838
       5572.3000      0.49421011
       5574.2500      0.61461551
       5576.2000      0.60666155
       5578.1500      0.43511215
       5580.1000      0.32020675
       5582.0500      0.34760259
       5584.0000      0.40854939
       5585.9500      0.41157078
       5587.9000      0.40174751
       5589.8500      0.39820083
       5591.8000      0.39144709
       5593.7500      0.35338216
       5595.7000      0.33786158
       5597.6500      0.32732414
       5599.6000      0.31051356
       5601.5500      0.31369388
       5603.5000      0.29523499
       5605.4500      0.29231226
       5607.4000      0.28053834
       5609.3500      0.28237566
       5611.3000      0.28311473
       5613.2500      0.27418249
       5615.2000      0.27253861
       5617.1500      0.27868867
       5619.1000      0.27546854
       5621.0500      0.27418065
       5623.0000      0.27056471
       5624.9500      0.25783293
       5626.9000      0.23870077
       5628.8500      0.25040117
       5630.8000      0.26081253
       5632.7500      0.25893417
       5634.7000      0.25508178
       5636.6500      0.26966720
       5638.6000      0.27344859
       5640.5500      0.26284736
       5642.5000      0.26603704
       5644.4500      0.25568322
       5646.4000      0.25984265
       5648.3500      0.26902268
       5650.3000      0.26548044
       5652.2500      0.26818013
       5654.2000      0.28210365
       5656.1500      0.28395649
       5658.1000      0.29421635
       5660.0500      0.28967096
       5662.0000      0.26659634
       5663.9500      0.26328156
       5665.9000      0.26244189
       5667.8500      0.24480735
       5669.8000      0.23414878
       5671.7500      0.22643537
       5673.7000      0.21447118
       5675.6500      0.20868689
       5677.6000      0.20679472
       5679.5500      0.19434349
       5681.5000      0.18156065
       5683.4500      0.17968178
       5685.4000      0.18129408
       5687.3500      0.17346332
       5689.3000      0.16669034
       5691.2500      0.16448519
       5693.2000      0.14872710
       5695.1500      0.13980631
       5697.1000      0.14582838
       5699.0500      0.14530356
       5701.0000      0.14135232
       5702.9500      0.13678109
       5704.9000      0.13441277
       5706.8500      0.13871094
       5708.8000      0.13697240
       5710.7500      0.12599335
       5712.7000      0.11547253
       5714.6500      0.11461806
       5716.6000      0.11310287
       5718.5500      0.10381189
       5720.5000      0.10247886
       5722.4500      0.10539663
       5724.4000      0.11374543
       5726.3500      0.12667865
       5728.3000      0.13682908
       5730.2500      0.12548949
       5732.2000      0.10779785
       5734.1500      0.10609545
       5736.1000      0.10975239
       5738.0500      0.10792223
       5740.0000      0.11116927
       5741.9500      0.11093848
       5743.9000      0.10413133
       5745.8500     0.094144394
       5747.8000     0.094970107
       5749.7500     0.098350730
       5751.7000     0.097298684
       5753.6500     0.088240654
       5755.6000     0.078730941
       5757.5500     0.076556671
       5759.5000     0.079465392
       5761.4500     0.077641178
       5763.4000     0.078106861
       5765.3500     0.073700676
       5767.3000     0.073156600
       5769.2500     0.075283840
       5771.2000     0.072024136
       5773.1500     0.073133928
       5775.1000     0.076087187
       5777.0500     0.079236082
       5779.0000     0.078721395
       5780.9500     0.070483630
       5782.9000     0.063215246
       5784.8500     0.060612822
       5786.8000     0.068866143
       5788.7500     0.068953054
       5790.7000     0.070792599
       5792.6500     0.080527392
       5794.6000     0.070074718
       5796.5500     0.062022826
       5798.5000     0.079901992
       5800.4500     0.083820558
       5802.4000     0.068596398
       5804.3500     0.073361831
       5806.3000     0.085153170
       5808.2500     0.079788098
       5810.2000     0.075760875
       5812.1500     0.080056655
       5814.1000     0.090241872
       5816.0500     0.093191397
       5818.0000     0.090634348
       5819.9500     0.093579881
       5821.9000     0.098897902
       5823.8500      0.11408575
       5825.8000      0.11747940
       5827.7500      0.11913512
       5829.7000      0.13960952
       5831.6500      0.15891501
       5833.6000      0.16368570
       5835.5500      0.16518940
       5837.5000      0.17735014
       5839.4500      0.18047270
       5841.4000      0.18381299
       5843.3500      0.18654136
       5845.3000      0.18013487
       5847.2500      0.18687999
       5849.2000      0.19817844
       5851.1500      0.20973582
       5853.1000      0.22550750
       5855.0500      0.23084938
       5857.0000      0.23099487
       5858.9500      0.23922748
       5860.9000      0.24123476
       5862.8500      0.24071675
       5864.8000      0.25560058
       5866.7500      0.26506358
       5868.7000      0.25823098
       5870.6500      0.26110071
       5872.6000      0.26798299
       5874.5500      0.27483264
       5876.5000      0.28539451
       5878.4500      0.29081744
       5880.4000      0.29930221
       5882.3500      0.30815877
       5884.3000      0.32763490
       5886.2500      0.33814523
       5888.2000      0.33150551
       5890.1500      0.32931792
       5892.1000      0.32977809
       5894.0500      0.33628114
       5896.0000      0.33783501
       5897.9500      0.35287782
       5899.9000      0.38228039
       5901.8500      0.39305223
       5903.8000      0.39691928
       5905.7500      0.40085648
       5907.7000      0.40809722
       5909.6500      0.42041865
       5911.6000      0.41276852
       5913.5500      0.39205899
       5915.5000      0.39085714
       5917.4500      0.38661092
       5919.4000      0.38116948
       5921.3500      0.39200698
       5923.3000      0.39132627
       5925.2500      0.38328567
       5927.2000      0.38412236
       5929.1500      0.38003561
       5931.1000      0.36891309
       5933.0500      0.36273357
       5935.0000      0.35636850
       5936.9500      0.34656061
       5938.9000      0.34578182
       5940.8500      0.35040231
       5942.8000      0.34402645
       5944.7500      0.34200595
       5946.7000      0.33503560
       5948.6500      0.32451426
       5950.6000      0.33427367
       5952.5500      0.33060221
       5954.5000      0.30991018
       5956.4500      0.30570011
       5958.4000      0.29600424
       5960.3500      0.28408347
       5962.3000      0.28288911
       5964.2500      0.28357997
       5966.2000      0.29251487
       5968.1500      0.27901358
       5970.1000      0.25407976
       5972.0500      0.25541000
       5974.0000      0.26272639
       5975.9500      0.25832197
       5977.9000      0.24262174
       5979.8500      0.24183732
       5981.8000      0.25665555
       5983.7500      0.25765133
       5985.7000      0.24466239
       5987.6500      0.24099508
       5989.6000      0.24016699
       5991.5500      0.23446323
       5993.5000      0.23021498
       5995.4500      0.22546940
       5997.4000      0.21963029
       5999.3500      0.21566913
       6001.3000      0.22086699
       6003.2500      0.22621154
       6005.2000      0.22720582
       6007.1500      0.22022343
       6009.1000      0.21455676
       6011.0500      0.21297429
       6013.0000      0.20571572
       6014.9500      0.20623715
       6016.9000      0.20095376
       6018.8500      0.18683858
       6020.8000      0.18572534
       6022.7500      0.19378803
       6024.7000      0.19937681
       6026.6500      0.19830307
       6028.6000      0.19403336
       6030.5500      0.18542924
       6032.5000      0.18665506
       6034.4500      0.18268510
       6036.4000      0.18039588
       6038.3500      0.18612603
       6040.3000      0.18029597
       6042.2500      0.17269686
       6044.2000      0.16961730
       6046.1500      0.16626332
       6048.1000      0.16459916
       6050.0500      0.17062866
       6052.0000      0.16935020
       6053.9500      0.16178379
       6055.9000      0.16192039
       6057.8500      0.16680548
       6059.8000      0.16502808
       6061.7500      0.15466189
       6063.7000      0.14963922
       6065.6500      0.15666024
       6067.6000      0.16858949
       6069.5500      0.16405335
       6071.5000      0.15282875
       6073.4500      0.15222758
       6075.4000      0.15331304
       6077.3500      0.15287636
       6079.3000      0.16744821
       6081.2500      0.17803125
       6083.2000      0.16505628
       6085.1500      0.15755667
       6087.1000      0.16715598
       6089.0500      0.16913469
       6091.0000      0.16853551
       6092.9500      0.17311777
       6094.9000      0.17266728
       6096.8500      0.17291744
       6098.8000      0.17882290
       6100.7500      0.18311165
       6102.7000      0.18808624
       6104.6500      0.18527189
       6106.6000      0.17888944
       6108.5500      0.17954329
       6110.5000      0.18863027
       6112.4500      0.19877846
       6114.4000      0.19945424
       6116.3500      0.19501659
       6118.3000      0.19449214
       6120.2500      0.20382974
       6122.2000      0.20307676
       6124.1500      0.19837441
       6126.1000      0.20583753
       6128.0500      0.21119019
       6130.0000      0.21217000
       6131.9500      0.20611841
       6133.9000      0.20701777
       6135.8500      0.22100251
       6137.8000      0.22372342
       6139.7500      0.22084840
       6141.7000      0.22317459
       6143.6500      0.23154254
       6145.6000      0.23896604
       6147.5500      0.23361795
       6149.5000      0.22274502
       6151.4500      0.22575101
       6153.4000      0.23190267
       6155.3500      0.22699050
       6157.3000      0.22305255
       6159.2500      0.22345175
       6161.2001      0.22027503
       6163.1500      0.21366134
       6165.1000      0.21029348
       6167.0500      0.21811984
       6169.0000      0.22965469
       6170.9500      0.22833703
       6172.9000      0.22051659
       6174.8500      0.21947456
       6176.8000      0.23070598
       6178.7500      0.23376037
       6180.7000      0.23316775
       6182.6500      0.23816976
       6184.6000      0.23331387
       6186.5500      0.24004275
       6188.5000      0.25166515
       6190.4500      0.25894425
       6192.4000      0.26713378
       6194.3500      0.26396505
       6196.3000      0.26591781
       6198.2500      0.29320687
       6200.2000      0.32034509
       6202.1500      0.32819653
       6204.1000      0.34606974
       6206.0500      0.37290130
       6208.0000      0.37716902
       6209.9500      0.37966835
       6211.9000      0.40266015
       6213.8500      0.42660263
       6215.8000      0.46407354
       6217.7500      0.50218314
       6219.7000      0.52403503
       6221.6500      0.54955819
       6223.6000      0.57778187
       6225.5500      0.62443500
       6227.5000      0.68227809
       6229.4500      0.74818205
       6231.4000      0.81958252
       6233.3500      0.87709748
       6235.3000      0.91966213
       6237.2500      0.95644647
       6239.2000       1.0105553
       6241.1500       1.0872400
       6243.1000       1.1282610
       6245.0500       1.1228874
       6247.0000       1.1573225
       6248.9500       1.1905111
       6250.9000       1.2390937
       6252.8500       1.2840055
       6254.8000       1.2963720
       6256.7500       1.3369474
       6258.7000       1.3773100
       6260.6500       1.3808604
       6262.6000       1.3883041
       6264.5500       1.3975222
       6266.4999       1.3897816
       6268.4500       1.3776362
       6270.4000       1.3858024
       6272.3500       1.4095105
       6274.3000       1.4490779
       6276.2500       1.5113174
       6278.2000       1.5373438
       6280.1500       1.5842091
       6282.1000       1.6711108
       6284.0500       1.7561055
       6286.0000       1.7652138
       6287.9500       1.7528447
       6289.9000       1.7791109
       6291.8500       1.8068735
       6293.8000       1.8751117
       6295.7500       1.9573075
       6297.7000       2.0337315
       6299.6500       2.1158257
       6301.6000       2.1833817
       6303.5500       2.2192675
       6305.5000       2.2561794
       6307.4500       2.2388889
       6309.4000       2.1873436
       6311.3500       2.1672027
       6313.3000       2.1885191
       6315.2500       2.2150487
       6317.2000       2.2263337
       6319.1500       2.2435745
       6321.1000       2.1905678
       6323.0500       2.1527702
       6325.0000       2.1354092
       6326.9500       2.1060628
       6328.9000       2.0415140
       6330.8500       1.9754118
       6332.8000       1.9366812
       6334.7500       1.9055622
       6336.7000       1.8728411
       6338.6500       1.8649321
       6340.6000       1.8806136
       6342.5500       1.8866322
       6344.5000       1.8605855
       6346.4500       1.8061502
       6348.4000       1.8148770
       6350.3500       1.8474890
       6352.3000       1.7627865
       6354.2500       1.6954545
       6356.2000       1.6918700
       6358.1500       1.6630271
       6360.1000       1.6355531
       6362.0500       1.6165311
       6364.0000       1.6225044
       6365.9500       1.6069605
       6367.9000       1.6050396
       6369.8500       1.6019014
       6371.8000       1.5405916
       6373.7500       1.5212182
       6375.7000       1.4871041
       6377.6500       1.4553168
       6379.6000       1.4204784
       6381.5500       1.3605074
       6383.5000       1.3269430
       6385.4500       1.2792165
       6387.4000       1.2531438
       6389.3500       1.2084839
       6391.3000       1.1633808
       6393.2500       1.1318077
       6395.2000       1.0935314
       6397.1500       1.0600274
       6399.1000       1.0211493
       6401.0500      0.99997264
       6403.0000      0.96951536
       6404.9500      0.96288877
       6406.9000      0.95293489
       6408.8500      0.92285628
       6410.8000      0.89127043
       6412.7500      0.86136418
       6414.7000      0.83648974
       6416.6500      0.80215962
       6418.6000      0.77652464
       6420.5500      0.75016855
       6422.5000      0.72259077
       6424.4500      0.67858683
       6426.4000      0.67697892
       6428.3500      0.66716072
       6430.3000      0.62655042
       6432.2500      0.61103737
       6434.2000      0.60332196
       6436.1500      0.59216143
       6438.1000      0.58438939
       6440.0500      0.56671761
       6442.0000      0.54307296
       6443.9500      0.55188126
       6445.9000      0.54339926
       6447.8500      0.53022279
       6449.8000      0.49938044
       6451.7500      0.49888268
       6453.7000      0.50538118
       6455.6500      0.49702558
       6457.6000      0.46014882
       6459.5500      0.43820731
       6461.5000      0.45151227
       6463.4500      0.44497944
       6465.4000      0.41173058
       6467.3500      0.40972328
       6469.3000      0.41982857
       6471.2500      0.38840115
       6473.2000      0.37414396
       6475.1500      0.39188410
       6477.1000      0.40001764
       6479.0500      0.38650994
       6481.0000      0.37178621
       6482.9500      0.36404395
       6484.9000      0.34955730
       6486.8500      0.34435622
       6488.8000      0.32673714
       6490.7500      0.34537716
       6492.7000      0.33911956
       6494.6500      0.32506909
       6496.6000      0.32705919
       6498.5500      0.32234452
       6500.5000      0.32730839
       6502.4500      0.32145139
       6504.4000      0.31466870
       6506.3500      0.30566732
       6508.3000      0.32094940
       6510.2500      0.31629994
       6512.2000      0.30850128
       6514.1500      0.31618606
       6516.1000      0.29784078
       6518.0500      0.29400902
       6520.0000      0.30413025
       6521.9500      0.29709563
       6523.9000      0.28252541
       6525.8500      0.28193772
       6527.8000      0.27688643
       6529.7500      0.26971092
       6531.7000      0.25901694
       6533.6500      0.26534931
       6535.6000      0.25680409
       6537.5500      0.25193707
       6539.5000      0.22561024
       6541.4500      0.23943183
       6543.4000      0.24236889
       6545.3500      0.24164989
       6547.3000      0.24276510
       6549.2500      0.21660858
       6551.2000      0.21716511
       6553.1500      0.22145950
       6555.1000      0.22225467
       6557.0500      0.20716037
       6559.0000      0.22551928
       6560.9500      0.22168695
       6562.9000      0.21326668
       6564.8500      0.22118309
       6566.8000      0.21256355
       6568.7500      0.21374342
       6570.7000      0.21107357
       6572.6500      0.21053135
       6574.6000      0.21588298
       6576.5500      0.22016359
       6578.5000      0.20545441
       6580.4500      0.20218556
       6582.4000      0.21913292
       6584.3500      0.21353287
       6586.3000      0.20947049
       6588.2500      0.22723244
       6590.2000      0.27316345
       6592.1500      0.32374582
       6594.1000      0.31967488
       6596.0500      0.25763278
       6598.0000      0.21225871
       6599.9500      0.20469758
       6601.9000      0.20898436
       6603.8500      0.19465731
       6605.8000      0.19130873
       6607.7500      0.19797412
       6609.7000      0.20750738
       6611.6500      0.21768922
       6613.6000      0.22631708
       6615.5500      0.22183970
       6617.5000      0.20292093
       6619.4500      0.19034323
       6621.4000      0.19899885
       6623.3500      0.18421633
       6625.3000      0.18697248
       6627.2500      0.18138468
       6629.2000      0.18663925
       6631.1500      0.17625507
       6633.1000      0.17813000
       6635.0500      0.18132806
       6637.0000      0.16594920
       6638.9500      0.15672558
       6640.9000      0.16380193
       6642.8500      0.15615051
       6644.8000      0.15047497
       6646.7500      0.15959726
       6648.7000      0.16483516
       6650.6500      0.15898854
       6652.6000      0.16060934
       6654.5500      0.15566699
       6656.5000      0.14967991
       6658.4500      0.14920346
       6660.4000      0.15246349
       6662.3500      0.14142443
       6664.3000      0.13944345
       6666.2500      0.13888570
       6668.2000      0.14074462
       6670.1500      0.14214806
       6672.1000      0.13120227
       6674.0500      0.13286254
       6676.0000      0.12834563
       6677.9500      0.13237005
       6679.9000      0.13817711
       6681.8500      0.13664651
       6683.8000      0.12566775
       6685.7500      0.13179839
       6687.7000      0.12260314
       6689.6500      0.12292625
       6691.6000      0.12007275
       6693.5500      0.12253969
       6695.5000      0.12487872
       6697.4500      0.12642232
       6699.4000      0.11978761
       6701.3500      0.10677749
       6703.3000      0.11208435
       6705.2500      0.11607408
       6707.2000      0.11793496
       6709.1500      0.11696624
       6711.1000      0.11222290
       6713.0500      0.10763932
       6715.0000      0.11310660
       6716.9500      0.11748262
       6718.9000     0.099792751
       6720.8500     0.095459041
       6722.8000     0.093024129
       6724.7500     0.098111074
       6726.7000     0.098418424
       6728.6500      0.10484040
       6730.6000      0.10623233
       6732.5500     0.096018749
       6734.5000     0.093289508
       6736.4500     0.097268741
       6738.4000     0.093907423
       6740.3500     0.096134991
       6742.3000      0.10141892
       6744.2500     0.095536421
       6746.2000     0.096026132
       6748.1500     0.098257286
       6750.1000     0.089351879
       6752.0500     0.083763500
       6754.0000     0.090565726
       6755.9500     0.086074883
       6757.9000     0.079642832
       6759.8500     0.087303275
       6761.8000     0.092759137
       6763.7500     0.095070965
       6765.7000     0.090343719
       6767.6500     0.091164611
       6769.6000     0.085037598
       6771.5500     0.089886612
       6773.5000     0.091914338
       6775.4500     0.084016864
       6777.4000     0.082740060
       6779.3500     0.081652439
       6781.3000     0.080000138
       6783.2500     0.092063502
       6785.2000     0.084938031
       6787.1500     0.084455116
       6789.1000     0.081869027
       6791.0500     0.085447391
       6793.0000     0.090518511
       6794.9500     0.093778039
       6796.9000     0.086796569
       6798.8500     0.090404400
       6800.8000     0.088771147
       6802.7500     0.090528211
       6804.7000     0.085963061
       6806.6500     0.083101486
       6808.6000     0.084997103
       6810.5500     0.085278652
       6812.5000     0.086201912
       6814.4500     0.087809150
       6816.4000     0.080272065
       6818.3500     0.082530601
       6820.3000     0.084344071
       6822.2500     0.081807185
       6824.2000     0.080899864
       6826.1500     0.085585983
       6828.1000     0.084624646
       6830.0500     0.085073507
       6832.0000     0.091710556
       6833.9500     0.084136223
       6835.9000     0.077550980
       6837.8500     0.077727745
       6839.8000     0.076889256
       6841.7500     0.077215185
       6843.7000     0.073219388
       6845.6500     0.080267212
       6847.6000     0.085301906
       6849.5500     0.078061894
       6851.5000     0.073746853
       6853.4500     0.076114819
       6855.4000     0.078340731
       6857.3500     0.075823989
       6859.3000     0.069709955
       6861.2500     0.074855144
       6863.2000     0.083246690
       6865.1500     0.068778856
       6867.1000     0.061943089
       6869.0500     0.070433870
       6871.0000     0.064933767
       6872.9500     0.055239170
       6874.9000     0.064710308
       6876.8500     0.068735655
       6878.8000     0.065955482
       6880.7500     0.067028336
       6882.7000     0.073815130
       6884.6500     0.077756269
       6886.6000     0.067759864
       6888.5500     0.060685334
       6890.5000     0.065772110
       6892.4500     0.064697996
       6894.4000     0.064076494
       6896.3500     0.066235389
       6898.3000     0.060448776
       6900.2500     0.066164798
       6902.2000     0.078194969
       6904.1500     0.072656084
       6906.1000     0.060623221
       6908.0500     0.054684205
       6910.0000     0.062510286
       6911.9500     0.072687929
       6913.9000     0.070891929
       6915.8500     0.066137503
       6917.8000     0.065677936
       6919.7500     0.064868683
       6921.7000     0.060303015
       6923.6500     0.062831784
       6925.6000     0.066380079
       6927.5500     0.062000543
       6929.5000     0.058238592
       6931.4500     0.059061559
       6933.4000     0.060740149
       6935.3500     0.070107500
       6937.3000     0.069693571
       6939.2500     0.058843128
       6941.2000     0.065790957
       6943.1500     0.069689729
       6945.1000     0.066475679
       6947.0500     0.070070625
       6949.0000     0.071618823
       6950.9500     0.067738186
       6952.9000     0.065308423
       6954.8500     0.070253454
       6956.8000     0.072745768
       6958.7500     0.074209126
       6960.7000     0.072185865
       6962.6500     0.070979374
       6964.6000     0.079548081
       6966.5500     0.084934871
       6968.5000     0.084714175
       6970.4500     0.082101724
       6972.4000     0.080352013
       6974.3500     0.086832469
       6976.3000     0.092731315
       6978.2500     0.087094311
       6980.2000     0.086592319
       6982.1500     0.088282295
       6984.1000     0.085465416
       6986.0500     0.085000221
       6988.0000     0.087242434
       6989.9500     0.098561536
       6991.9000     0.099317316
       6993.8500     0.095351743
       6995.8000     0.099668100
       6997.7500     0.091743112
       6999.7000     0.087989201
       7001.6500     0.095642177
       7003.6000      0.10207713
       7005.5500      0.10822767
       7007.5000      0.10349354
       7009.4500     0.098664692
       7011.4000      0.10300328
       7013.3500      0.11011270
       7015.3000      0.11078364
       7017.2500      0.10645629
       7019.2000      0.10923373
       7021.1500      0.11130576
       7023.1000      0.10737892
       7025.0500      0.10821393
       7027.0000      0.11666603
       7028.9500      0.11531616
       7030.9000      0.11962562
       7032.8500      0.12420511
       7034.8000      0.11005611
       7036.7500      0.10708562
       7038.7000      0.11292940
       7040.6500      0.11437018
       7042.6000      0.11595384
       7044.5500      0.11614195
       7046.5000      0.12040021
       7048.4500      0.11356034
       7050.4000      0.11302941
       7052.3500      0.12099847
       7054.3000      0.11663499
       7056.2500      0.11550696
       7058.2000      0.11477320
       7060.1500      0.11828881
       7062.1000      0.12381087
       7064.0500      0.12568379
       7066.0000      0.12734128
       7067.9500     0.079258046
       7069.9000     0.094104032
       7071.8500      0.15179130
       7073.8000      0.14916619
       7075.7500      0.13312349
       7077.7000      0.13797562
       7079.6500      0.14863608
       7081.6000      0.15330930
       7083.5500      0.14748351
       7085.5000      0.15206895
       7087.4500      0.15199129
       7089.4000      0.14562045
       7091.3500      0.14594610
       7093.3000      0.13580064
       7095.2501      0.14466811
       7097.2000      0.15223747
       7099.1500      0.15290883
       7101.1000      0.16407828
       7103.0500      0.15757750
       7105.0000      0.15838152
       7106.9500      0.17677347
       7108.9000      0.16757639
       7110.8500      0.17444212
       7112.8000      0.16988563
       7114.7500      0.15620465
       7116.7000      0.15482383
       7118.6500      0.16608766
       7120.6000      0.16551822
       7122.5500      0.15877865
       7124.5000      0.15097039
       7126.4500      0.16733960
       7128.4000      0.18898082
       7130.3500      0.17908483
       7132.3000      0.17106978
       7134.2500      0.16997615
       7136.2000      0.17126986
       7138.1500      0.18129441
       7140.1000      0.18757467
       7142.0500      0.19081649
       7144.0000      0.18710541
       7145.9500      0.18666336
       7147.9000      0.19103832
       7149.8500      0.19438675
       7151.8000      0.18797645
       7153.7500      0.17907829
       7155.7000      0.18802217
       7157.6500      0.19880526
       7159.6000      0.20012262
       7161.5500      0.19505740
       7163.5000      0.20045313
       7165.4500      0.20120009
       7167.4000      0.19757965
       7169.3500      0.19443372
       7171.3000      0.18761177
       7173.2500      0.18069750
       7175.2000      0.18796566
       7177.1500      0.20028745
       7179.1000      0.20425011
       7181.0500      0.19250906
       7183.0000      0.18139387
       7184.9500      0.18906678
       7186.9000      0.18669785
       7188.8500      0.19514203
       7190.8000      0.18984446
       7192.7500      0.17554541
       7194.7000      0.19718927
       7196.6500      0.19359316
       7198.6000      0.19102882
       7200.5499      0.20257336
       7202.5000      0.20094282
       7204.4500      0.18852020
       7206.4000      0.19297550
       7208.3500      0.22379950
       7210.3000      0.23701684
       7212.2500      0.24302783
       7214.2000      0.23857073
       7216.1500      0.25257977
       7218.1000      0.26951545
       7220.0500      0.26361761
       7222.0000      0.25727350
       7223.9500      0.26144810
       7225.9000      0.27905640
       7227.8500      0.29341405
       7229.8000      0.28769699
       7231.7500      0.29387503
       7233.7000      0.28199635
       7235.6500      0.29887900
       7237.6000      0.30657775
       7239.5500      0.29689130
       7241.5000      0.32020666
       7243.4500      0.35424837
       7245.4000      0.36585123
       7247.3500      0.37785603
       7249.3000      0.38537977
       7251.2500      0.35134848
       7253.2000      0.36363525
       7255.1500      0.41078270
       7257.1000      0.40624257
       7259.0500      0.39135508
       7261.0000      0.40080683
       7262.9500      0.41653016
       7264.9000      0.42445396
       7266.8500      0.43362332
       7268.8000      0.44853121
       7270.7500      0.45948274
       7272.7000      0.47867707
       7274.6500      0.48475655
       7276.6000      0.49308089
       7278.5500      0.51588654
       7280.5000      0.54136682
       7282.4500      0.58425168
       7284.4000      0.59253374
       7286.3500      0.59123546
       7288.3000      0.62842348
       7290.2500      0.67217548
       7292.2000      0.68470209
       7294.1500      0.69559690
       7296.1000      0.69909248
       7298.0500      0.70895965
       7300.0000      0.72668595
       7301.9500      0.72137025
       7303.9000      0.75064862
       7305.8500      0.76660321
       7307.8000      0.76486225
       7309.7500      0.79105584
       7311.7000      0.80027414
       7313.6500      0.79381630
       7315.6000      0.79648896
       7317.5500      0.80520352
       7319.5000      0.79117022
       7321.4500      0.79654007
       7323.4000      0.80276057
       7325.3500      0.81343786
       7327.3000      0.80565962
       7329.2500      0.76592488
       7331.2000      0.75896620
       7333.1500      0.73570281
       7335.1000      0.73646349
       7337.0500      0.73894743
       7339.0000      0.73123364
       7340.9500      0.70825670
       7342.9000      0.71335154
       7344.8500      0.72595128
       7346.8000      0.74215708
       7348.7500      0.70355129
       7350.7000      0.67852527
       7352.6500      0.63931246
       7354.6000      0.61171626
       7356.5500      0.60454939
       7358.5000      0.60850105
       7360.4500      0.56417429
       7362.4000      0.51908554
       7364.3500      0.52631374
       7366.3000      0.54406593
       7368.2500      0.53616155
       7370.2000      0.53955480
       7372.1500      0.52900309
       7374.1000      0.51026370
       7376.0500      0.49964392
       7378.0000      0.50109781
       7379.9500      0.49847138
       7381.9000      0.50085883
       7383.8500      0.47797061
       7385.8000      0.48468048
       7387.7500      0.45045222
       7389.7000      0.44382219
       7391.6500      0.42619453
       7393.6000      0.40212850
       7395.5500      0.40036918
       7397.5000      0.37415998
       7399.4500      0.37579586
       7401.4000      0.38443811
       7403.3500      0.36168836
       7405.3000      0.35682816
       7407.2500      0.35113646
       7409.2000      0.36955674
       7411.1500      0.35484920
       7413.1000      0.33366851
       7415.0500      0.33866438
       7417.0000      0.33719481
       7418.9500      0.31306753
       7420.9000      0.32068788
       7422.8500      0.30934270
       7424.8000      0.29289030
       7426.7500      0.29431929
       7428.7000      0.31707100
       7430.6500      0.29429440
       7432.6000      0.27985767
       7434.5500      0.27109074
       7436.5000      0.27113846
       7438.4500      0.27110554
       7440.4000      0.25576839
       7442.3500      0.26888780
       7444.3000      0.26231500
       7446.2500      0.23214797
       7448.2000      0.24948130
       7450.1500      0.24605791
       7452.1000      0.25072230
       7454.0500      0.24970743
       7456.0000      0.23591808
       7457.9500      0.23287513
       7459.9000      0.22101935
       7461.8500      0.21682062
       7463.8000      0.22932055
       7465.7500      0.21673136
       7467.7000      0.19673254
       7469.6500      0.21542120
       7471.6000      0.20315700
       7473.5500      0.18625955
       7475.5000      0.17706735
       7477.4500      0.18674923
       7479.4000      0.19336143
       7481.3500      0.18053576
       7483.3000      0.16623937
       7485.2500      0.15895460
       7487.2000      0.15409868
       7489.1500      0.17043161
       7491.1000      0.16895740
       7493.0500      0.14724993
       7495.0000      0.14903141
       7496.9500      0.14656342
       7498.9000      0.13926803
       7500.8500      0.14213328
       7502.8000      0.13674678
       7504.7500      0.11930551
       7506.7000      0.12401078
       7508.6500      0.12957314
       7510.6000      0.13010743
       7512.5500      0.11734569
       7514.5000      0.11611455
       7516.4500      0.12031036
       7518.4000      0.10814005
       7520.3500      0.10531290
       7522.3000      0.10630698
       7524.2500      0.11414606
       7526.2000      0.10361886
       7528.1500      0.10222018
       7530.1000      0.10435119
       7532.0500      0.10702672
       7534.0000      0.11323362
       7535.9500     0.090238123
       7537.9000     0.090722946
       7539.8500     0.098882671
       7541.8000      0.10068529
       7543.7500      0.10283573
       7545.7000      0.10418763
       7547.6500      0.10663463
       7549.6000      0.10002967
       7551.5500      0.10171772
       7553.5000     0.090943869
       7555.4500     0.078774177
       7557.4000     0.090561694
       7559.3500      0.10090541
       7561.3000     0.096201953
       7563.2500     0.090607698
       7565.2000     0.086764166
       7567.1500     0.089163199
       7569.1000     0.075722178
       7571.0500     0.069458539
       7573.0000     0.087437749
       7574.9500     0.076709688
       7576.9000     0.075093109
       7578.8500     0.079975287
       7580.8000     0.066415701
       7582.7500     0.062976750
       7584.7000     0.076348286
       7586.6500     0.075574275
       7588.6000     0.069132090
       7590.5500     0.068770088
       7592.5000     0.069252036
       7594.4500     0.056878096
       7596.4000     0.041108174
       7598.3500     0.061113613
       7600.3000     0.053298973
       7602.2500     0.040403607
       7604.2000     0.051963978
       7606.1500     0.054075503
       7608.1000     0.041510431
       7610.0500     0.071117095
       7612.0000     0.047745418
       7613.9500     0.051694255
       7615.9000     0.066287793
       7617.8500     0.077920895
       7619.8000     0.065708907
       7621.7500     0.062383854
       7623.7000     0.054258497
       7625.6500     0.061803577
       7627.6000     0.067717495
       7629.5500     0.066949070
       7631.5000     0.063945353
       7633.4500     0.059801335
       7635.4000     0.059383094
       7637.3500     0.060377413
       7639.3000     0.059782940
       7641.2500     0.071367574
       7643.2000     0.065789591
       7645.1500     0.072078833
       7647.1000     0.065112630
       7649.0500     0.072675523
       7651.0000     0.066772789
       7652.9500     0.069410763
       7654.9000     0.081161183
       7656.8500     0.068262713
       7658.8000     0.078008931
       7660.7500     0.099482106
       7662.7000     0.088256671
       7664.6500     0.083995469
       7666.6000     0.078277345
       7668.5500     0.082533986
       7670.5000     0.082181010
       7672.4500     0.082869845
       7674.4000     0.080602317
       7676.3500     0.086178107
       7678.3000     0.095949065
       7680.2500     0.095071481
       7682.2000     0.089712882
       7684.1500     0.087720909
       7686.1000     0.099942485
       7688.0500     0.093930054
       7690.0000     0.097333643
       7691.9500      0.10525214
       7693.9000      0.10056451
       7695.8500      0.10402893
       7697.8000      0.11550862
       7699.7500      0.11273966
       7701.7000      0.11875258
       7703.6500      0.11996872
       7705.6000      0.11714636
       7707.5500      0.12705106
       7709.5000      0.11883462
       7711.4500      0.14136038
       7713.4000      0.13856055
       7715.3500      0.14031999
       7717.3000      0.11576080
       7719.2500      0.13045398
       7721.2000      0.14825587
       7723.1500      0.15496378
       7725.1000      0.15496847
       7727.0500      0.15360180
       7729.0000      0.16499247
       7730.9500      0.15456067
       7732.9000      0.14717870
       7734.8500      0.16298665
       7736.8000      0.17648778
       7738.7500      0.16314037
       7740.7000      0.16741042
       7742.6500      0.17610876
       7744.6000      0.18202896
       7746.5500      0.20618849
       7748.5000      0.21016063
       7750.4500      0.18755127
       7752.4000      0.19510638
       7754.3500      0.19923404
       7756.3000      0.19022557
       7758.2500      0.19449037
       7760.2000      0.19351687
       7762.1500      0.19673244
       7764.1000      0.20756663
       7766.0500      0.21355993
       7768.0000      0.20447430
       7769.9500      0.21207358
       7771.9000      0.22113055
       7773.8500      0.21934404
       7775.8000      0.23650246
       7777.7500      0.24889938
       7779.7000      0.25552914
       7781.6500      0.25756841
       7783.6000      0.26835527
       7785.5500      0.26856058
       7787.5000      0.24796642
       7789.4500      0.27304408
       7791.4000      0.28506335
       7793.3500      0.25305610
       7795.3000      0.23079617
       7797.2500      0.22462293
       7799.2000      0.21144295
       7801.1500      0.20976502
       7803.1000      0.20719716
       7805.0500      0.19598847
       7807.0000      0.20343260
       7808.9500      0.20578504
       7810.9000      0.17349339
       7812.8500      0.17070699
       7814.8000      0.19964762
       7816.7500      0.19451900
       7818.7000      0.18845651
       7820.6500      0.17520284
       7822.6000      0.16939854
       7824.5500      0.17297077
       7826.5000      0.16051204
       7828.4500      0.15870450
       7830.4000      0.16637768
       7832.3500      0.16254816
       7834.3000      0.15323995
       7836.2500      0.16070908
       7838.2000      0.17030685
       7840.1500      0.15951225
       7842.1000      0.15431689
       7844.0500      0.14463322
       7846.0000      0.15154464
       7847.9500      0.13206855
       7849.9000      0.14734277
       7851.8500      0.13981608
       7853.8000      0.12251936
       7855.7500      0.12415166
       7857.7000      0.13901518
       7859.6500      0.14508276
       7861.6000      0.14333841
       7863.5500      0.12943703
       7865.5000      0.12144880
       7867.4500      0.13447144
       7869.4000      0.12553729
       7871.3500      0.11974269
       7873.3000      0.12704213
       7875.2500      0.12484289
       7877.2000      0.12348694
       7879.1500      0.11988126
       7881.1000      0.11809656
       7883.0500      0.11136463
       7885.0000      0.11763467
       7886.9500      0.12864148
       7888.9000      0.12652571
       7890.8500      0.11262633
       7892.8000     0.091275377
       7894.7500      0.10178628
       7896.7000      0.11298565
       7898.6500      0.11781586
       7900.6000      0.11003179
       7902.5500      0.10685245
       7904.5000      0.11043848
       7906.4500      0.11288023
       7908.4000      0.12083104
       7910.3500      0.12597230
       7912.3000      0.12790343
       7914.2500      0.11061161
       7916.2000     0.099169460
       7918.1500      0.10526612
       7920.1000      0.10491542
       7922.0500      0.10408751
       7924.0000      0.10693386
       7925.9500      0.10197594
       7927.9000      0.10779882
       7929.8500      0.12042749
       7931.8000      0.10753304
       7933.7500     0.098562739
       7935.7000      0.11292042
       7937.6500      0.12301891
       7939.6000      0.11401714
       7941.5500      0.10327380
       7943.5000     0.099903930
       7945.4500      0.11419661
       7947.4000      0.12807812
       7949.3500      0.11492678
       7951.3000      0.11024665
       7953.2500      0.12031936
       7955.2000      0.11905005
       7957.1500      0.11098845
       7959.1000      0.11349626
       7961.0500      0.12522270
       7963.0000      0.14270997
       7964.9500      0.13731416
       7966.9000      0.11559760
       7968.8500      0.10976978
       7970.8000      0.10765002
       7972.7500      0.10613550
       7974.7000      0.10232685
       7976.6500      0.10680015
       7978.6000      0.10456989
       7980.5500     0.095882499
       7982.5000      0.11093391
       7984.4500      0.12550016
       7986.4000      0.12093898
       7988.3500      0.12367702
       7990.3000      0.13920689
       7992.2500      0.14176114
       7994.2000      0.12512206
       7996.1500      0.12045471
       7998.1000      0.12057772
       8000.0500      0.11151400
       8002.0000      0.11108425
       8003.9500      0.11506673
       8005.9000      0.10679351
       8007.8500      0.10143723
       8009.8000      0.11867285
       8011.7500      0.11538397
       8013.7000      0.11022655
       8015.6500      0.11292205
       8017.6000      0.10215844
       8019.5500      0.10534245
       8021.5000      0.10164227
       8023.4500     0.098138935
       8025.4000     0.091455508
       8027.3500     0.082201789
       8029.3001      0.10005775
       8031.2500      0.11043192
       8033.2000      0.10297492
       8035.1500     0.096668566
       8037.1000      0.10322839
       8039.0500      0.10929016
       8041.0000      0.10385594
       8042.9500      0.10562470
       8044.9000      0.10627571
       8046.8500      0.10266866
       8048.8000     0.092717496
       8050.7500     0.089099913
       8052.7000      0.11410019
       8054.6500      0.10892408
       8056.6000     0.087087248
       8058.5500     0.078528342
       8060.5000     0.079065509
       8062.4500     0.092789639
       8064.4000     0.089235078
       8066.3500     0.082329790
       8068.3000     0.094522168
       8070.2500      0.10706386
       8072.2000      0.10510476
       8074.1500     0.098115629
       8076.1000     0.096397978
       8078.0500      0.10177522
       8080.0000      0.10292415
       8081.9500     0.088277825
       8083.9000     0.079633557
       8085.8500     0.089106663
       8087.8000      0.10349736
       8089.7500      0.11680823
       8091.7000      0.10558407
       8093.6500     0.091594702
       8095.6000     0.096533293
       8097.5500     0.088261451
       8099.5000     0.086335552
       8101.4500      0.10131417
       8103.4000      0.10454463
       8105.3500     0.095388066
       8107.3000     0.092370085
       8109.2500     0.095077654
       8111.2000     0.096793713
       8113.1500     0.085838609
       8115.1000     0.080955253
       8117.0500     0.099257249
       8119.0000     0.096935880
       8120.9500     0.077176693
       8122.9000     0.076717403
       8124.8500     0.095618346
       8126.8000      0.10335806
       8128.7500     0.094795991
       8130.7000     0.082128121
       8132.6500     0.069095379
       8134.5999     0.078447618
       8136.5500     0.090366083
       8138.5000     0.082465735
       8140.4500     0.076837567
       8142.4000     0.082616669
       8144.3500     0.094306406
       8146.3000     0.089396529
       8148.2500     0.075720058
       8150.2000     0.082321268
       8152.1500     0.085848508
       8154.1000     0.075586952
       8156.0500     0.082260615
       8158.0000     0.088449581
       8159.9500     0.073746873
       8161.9000     0.067085136
       8163.8500     0.066593529
       8165.8000     0.077752739
       8167.7500     0.073788080
       8169.7000     0.059180866
       8171.6500     0.070570531
       8173.6000     0.078383790
       8175.5500     0.077522878
       8177.5000     0.092531527
       8179.4500     0.089767643
       8181.4000     0.083186022
       8183.3500     0.079417715
       8185.3000     0.074227350
       8187.2500     0.067312591
       8189.2000     0.061177176
       8191.1500     0.066079672
       8193.1000     0.070573340
       8195.0500     0.082492348
       8197.0000     0.097007943
       8198.9500     0.091139295
       8200.9000     0.077701282
       8202.8500     0.071511134
       8204.8000     0.073194271
       8206.7500     0.078113667
       8208.7000     0.074997710
       8210.6500     0.073938526
       8212.6000     0.072304114
       8214.5500     0.072327077
       8216.5000     0.065175622
       8218.4500     0.059479681
       8220.4000     0.079577304
       8222.3500     0.089571671
       8224.3000     0.090477706
       8226.2500     0.080252247
       8228.2000     0.069485534
       8230.1500     0.082603747
       8232.1000     0.079074661
       8234.0500     0.079341951
       8236.0000     0.080491078
       8237.9500     0.079460709
       8239.9000     0.066753437
       8241.8500     0.077305353
       8243.8000     0.089570795
       8245.7500     0.070364351
       8247.7000     0.059223468
       8249.6500     0.053552784
       8251.6000     0.055253641
       8253.5500     0.066392122
       8255.5000     0.060762981
       8257.4500     0.039107183
       8259.4000     0.033122465
       8261.3500     0.034401073
       8263.3000     0.040672107
       8265.2500     0.046865842
       8267.2000     0.050639770
       8269.1500     0.052181266
       8271.1000     0.047069851
       8273.0500     0.045129349
       8275.0000     0.037460343
       8276.9500     0.045198548
       8278.9000     0.048077508
       8280.8500     0.034931239
       8282.8000     0.042507996
       8284.7500     0.043487017
       8286.7000     0.036518336
       8288.6500     0.021817742
       8290.6000     0.020042333
       8292.5500     0.014838938
       8294.5000     0.025790372
       8296.4500     0.059382467
       8298.4000     0.057690211
       8300.3500     0.043193698
       8302.3000     0.027931302
       8304.2500     0.020246825
       8306.2000     0.038990319
       8308.1500     0.048282213
       8310.1000     0.037411019
       8312.0500     0.024287482
       8314.0000    0.0081963790
       8315.9500     0.013814937
       8317.9000     0.031984514
       8319.8500     0.029666649
       8321.8000     0.013244134
       8323.7500     0.017627357
       8325.7000     0.031263883
       8327.6500     0.034667582
       8329.6000     0.029956394
       8331.5500     0.029428136
       8333.5000     0.022051732
       8335.4500    0.0080610303
       8337.4000     0.018786228
       8339.3500     0.049884893
       8341.3000     0.041879775
       8343.2500     0.027004532
       8345.2000     0.014270457
       8347.1500    0.0024696610
       8349.1000     0.017808381
       8351.0500     0.058383353
       8353.0000     0.062812366
       8354.9500     0.014922537
       8356.9000     0.038789845
       8358.8500     0.040712884
       8360.8000     0.037270990
       8362.7500     0.035249530
       8364.7000     0.035929543
       8366.6500     0.022740233
       8368.6000    0.0091093358
       8370.5500     0.012217283
       8372.5000     0.021565176
       8374.4500     0.026146399
       8376.4000     0.031627610
       8378.3500     0.026535478
       8380.3000     0.029777980
       8382.2500     0.049186219
       8384.2000     0.038600002
       8386.1500     0.035798611
       8388.1000     0.044998935
       8390.0500     0.047671793
       8392.0000     0.062749841
       8393.9500     0.047790460
       8395.9000     0.052331948
       8397.8500     0.010782800
       8399.8000     0.052703099
       8401.7500     0.055796555
       8403.7000     0.045828474
       8405.6500     0.042420158
       8407.6000     0.023922162
       8409.5500     0.029644565
       8411.5000     0.044908790
       8413.4500     0.047473011
       8415.4000     0.045784703
       8417.3500     0.024572339
       8419.3000     0.024544692
       8421.2500     0.036181962
       8423.2000     0.038074115
       8425.1500     0.067468273
       8427.1000     0.049982437
       8429.0500     0.061316187
       8431.0000     0.056378664
       8432.9500     0.046230441
       8434.9000     0.054306736
       8436.8500     0.056673862
       8438.8000     0.064689062
       8440.7500     0.050798244
       8442.7000     0.039657474
       8444.6500     0.044490873
       8446.6000     0.062393195
       8448.5500     0.081800549
       8450.5000     0.073729063
       8452.4500     0.080326669
       8454.4000     0.073333754
       8456.3500     0.058181939
       8458.3000     0.068619257
       8460.2500     0.084863243
       8462.2000     0.085546200
       8464.1500     0.097962675
       8466.1000     0.086780579
       8468.0500     0.062321370
       8470.0000     0.086004011
       8471.9500     0.093137290
       8473.9000      0.10426776
       8475.8500      0.10575146
       8477.8000     0.085546256
       8479.7500     0.081814793
       8481.7000     0.095896843
       8483.6500     0.099260953
       8485.6000     0.092571846
       8487.5500      0.10021649
       8489.5000      0.10322523
       8491.4500      0.10422768
       8493.4000      0.11929368
       8495.3500     0.090591429
       8497.3000     0.093165939
       8499.2500     0.097394688
       8501.2000      0.11169462
       8503.1500      0.13405071
       8505.1000      0.15238711
       8507.0500      0.13092373
       8509.0000      0.12160075
       8510.9500      0.12700779
       8512.9000      0.14610394
       8514.8500      0.16489230
       8516.8000      0.13753907
       8518.7500      0.14416913
       8520.7000      0.16380109
       8522.6500      0.13722184
       8524.6000      0.15592594
       8526.5500      0.17617049
       8528.5000      0.16574814
       8530.4500      0.14564873
       8532.4000      0.16219412
       8534.3500      0.18026875
       8536.3000      0.16050467
