Units are: observed wavelength (Ang), observed flux (10^-15 erg/s/cm^2/Ang)
       3633.5700      0.64272915
       3635.5600      0.14529423
       3637.5500     -0.16583052
       3639.5400     0.062311014
       3641.5300      0.31631132
       3643.5200      0.38316080
       3645.5100      0.20677605
       3647.5000     0.014948176
       3649.4900     -0.18191311
       3651.4800      0.21949299
       3653.4700      0.28001779
       3655.4600     0.066325976
       3657.4500    -0.043453121
       3659.4400      0.10692586
       3661.4300      0.30831828
       3663.4200     0.049878415
       3665.4100    -0.021278502
       3667.4000      0.16032364
       3669.3900     0.063977539
       3671.3800     0.042629093
       3673.3700     0.066094502
       3675.3600      0.10915072
       3677.3500      0.13860906
       3679.3400      0.21206445
       3681.3300      0.19789053
       3683.3200      0.26471997
       3685.3100      0.35065171
       3687.3000     0.086476769
       3689.2900      0.22179202
       3691.2800      0.26701285
       3693.2700      0.31981828
       3695.2600      0.11624256
       3697.2500      0.25962984
       3699.2400      0.23229566
       3701.2300      0.13653955
       3703.2200      0.10064561
       3705.2100      0.27925215
       3707.2000      0.24874019
       3709.1900      0.16109033
       3711.1800     0.040889062
       3713.1700      0.12598736
       3715.1600     0.096796155
       3717.1500      0.21786507
       3719.1400      0.27464280
       3721.1300      0.22214273
       3723.1200      0.20605775
       3725.1100      0.23085012
       3727.1000      0.21011051
       3729.0900      0.26295404
       3731.0800      0.22949670
       3733.0700      0.16884795
       3735.0600      0.21196847
       3737.0500      0.17050146
       3739.0400      0.15869816
       3741.0300      0.21439475
       3743.0200      0.18455110
       3745.0100      0.15286700
       3747.0000      0.17582027
       3748.9900      0.16968425
       3750.9800      0.21089254
       3752.9700      0.19451335
       3754.9600      0.22127369
       3756.9500      0.21518710
       3758.9400      0.17062980
       3760.9300      0.14415487
       3762.9200      0.17591783
       3764.9100      0.15011561
       3766.9001      0.16776783
       3768.8900      0.14063130
       3770.8800      0.16006183
       3772.8700      0.12710070
       3774.8600      0.13896904
       3776.8500      0.15165478
       3778.8400      0.14964700
       3780.8300      0.16377924
       3782.8200      0.19079419
       3784.8100      0.18112292
       3786.8000      0.16841882
       3788.7900      0.16324875
       3790.7800      0.13923184
       3792.7700      0.11390859
       3794.7600     0.095612780
       3796.7500      0.12211305
       3798.7400      0.13679801
       3800.7300      0.12256995
       3802.7200     0.087446783
       3804.7100      0.14952967
       3806.7000      0.12088149
       3808.6900     0.066915425
       3810.6800     0.032439793
       3812.6700     0.029076502
       3814.6600     0.055612255
       3816.6500      0.11145058
       3818.6400      0.10578765
       3820.6300     0.097304924
       3822.6200      0.10546038
       3824.6100      0.13054551
       3826.6000      0.12746098
       3828.5900      0.11094483
       3830.5800      0.11078241
       3832.5700      0.12524696
       3834.5600      0.11359120
       3836.5500     0.092599193
       3838.5400     0.065615865
       3840.5300     0.075974589
       3842.5200      0.10857034
       3844.5100     0.090234457
       3846.5000      0.10587022
       3848.4900      0.12381836
       3850.4800      0.11604547
       3852.4700      0.12527169
       3854.4600      0.14685813
       3856.4500      0.14887660
       3858.4400      0.15074715
       3860.4300      0.14573661
       3862.4200      0.17139009
       3864.4100      0.17763771
       3866.4000      0.19318430
       3868.3900      0.17781604
       3870.3800      0.18955836
       3872.3700      0.20939768
       3874.3600      0.22074965
       3876.3500      0.21533903
       3878.3400      0.24159959
       3880.3300      0.24102701
       3882.3200      0.23124382
       3884.3100      0.22840919
       3886.3000      0.25322767
       3888.2900      0.23106171
       3890.2800      0.25397216
       3892.2700      0.29076686
       3894.2600      0.30176235
       3896.2500      0.29299564
       3898.2400      0.25323318
       3900.2300      0.25664040
       3902.2200      0.29795555
       3904.2100      0.32467639
       3906.2000      0.33822697
       3908.1900      0.33143570
       3910.1800      0.34859585
       3912.1700      0.38148292
       3914.1600      0.37913337
       3916.1500      0.35306470
       3918.1400      0.33922590
       3920.1300      0.41378316
       3922.1200      0.36910548
       3924.1100      0.37594845
       3926.1000      0.39066335
       3928.0900      0.41006774
       3930.0800      0.37174042
       3932.0700      0.37005650
       3934.0600      0.38654303
       3936.0500      0.41171804
       3938.0400      0.41551098
       3940.0300      0.44520658
       3942.0200      0.45896539
       3944.0100      0.44093222
       3946.0000      0.42229301
       3947.9900      0.42940675
       3949.9800      0.42493912
       3951.9700      0.41252849
       3953.9600      0.41541349
       3955.9500      0.45821709
       3957.9400      0.45845976
       3959.9300      0.46499250
       3961.9200      0.44548501
       3963.9100      0.46727957
       3965.9000      0.47829688
       3967.8900      0.46568188
       3969.8800      0.48779819
       3971.8700      0.50416819
       3973.8600      0.45172207
       3975.8500      0.46684919
       3977.8400      0.49432888
       3979.8300      0.49080738
       3981.8200      0.46531540
       3983.8100      0.49151124
       3985.8000      0.48226695
       3987.7900      0.47606710
       3989.7800      0.48908834
       3991.7700      0.45641557
       3993.7600      0.44580595
       3995.7500      0.49659081
       3997.7400      0.49719590
       3999.7300      0.49196136
       4001.7200      0.50559930
       4003.7100      0.49516241
       4005.7000      0.49007208
       4007.6900      0.47851400
       4009.6800      0.47843367
       4011.6700      0.49516738
       4013.6600      0.49792769
       4015.6500      0.46219201
       4017.6400      0.47295289
       4019.6300      0.48440598
       4021.6200      0.49094455
       4023.6100      0.49356178
       4025.6000      0.48483190
       4027.5900      0.46239351
       4029.5800      0.46578369
       4031.5700      0.43633426
       4033.5600      0.46928991
       4035.5500      0.48196033
       4037.5400      0.46150070
       4039.5300      0.47265506
       4041.5200      0.50887974
       4043.5100      0.52280456
       4045.5000      0.47139085
       4047.4900      0.47934119
       4049.4800      0.48753888
       4051.4700      0.47575240
       4053.4600      0.45625088
       4055.4500      0.44723994
       4057.4400      0.45251348
       4059.4300      0.45494850
       4061.4200      0.42224782
       4063.4100      0.41056105
       4065.4000      0.41445025
       4067.3900      0.46191762
       4069.3800      0.42077493
       4071.3700      0.39499744
       4073.3600      0.43216788
       4075.3500      0.43698102
       4077.3400      0.42768492
       4079.3300      0.41333380
       4081.3200      0.42748734
       4083.3100      0.40686720
       4085.3000      0.38463223
       4087.2900      0.40975352
       4089.2800      0.40005724
       4091.2700      0.37883018
       4093.2600      0.40153987
       4095.2500      0.39834626
       4097.2400      0.37211427
       4099.2300      0.37753084
       4101.2200      0.35051091
       4103.2100      0.35797395
       4105.2000      0.37698563
       4107.1900      0.38208725
       4109.1800      0.35782347
       4111.1700      0.32429249
       4113.1600      0.31587133
       4115.1500      0.34216119
       4117.1400      0.31356944
       4119.1300      0.30970239
       4121.1200      0.32315728
       4123.1100      0.29466710
       4125.1000      0.28984595
       4127.0900      0.29216373
       4129.0800      0.29452470
       4131.0700      0.31353472
       4133.0600      0.30456284
       4135.0500      0.29185369
       4137.0400      0.30880823
       4139.0300      0.28354205
       4141.0200      0.28676631
       4143.0100      0.27884827
       4145.0000      0.26918058
       4146.9900      0.27430021
       4148.9800      0.26892478
       4150.9700      0.23452120
       4152.9600      0.26318326
       4154.9500      0.25398938
       4156.9400      0.25649154
       4158.9300      0.26287683
       4160.9200      0.25305373
       4162.9100      0.25371758
       4164.9000      0.25044809
       4166.8900      0.22400174
       4168.8800      0.23277821
       4170.8700      0.23061616
       4172.8600      0.20520414
       4174.8500      0.22132216
       4176.8400      0.19168120
       4178.8300      0.18714031
       4180.8200      0.20953496
       4182.8100      0.20079487
       4184.8000      0.19240149
       4186.7900      0.20257878
       4188.7800      0.19396163
       4190.7700      0.19550038
       4192.7600      0.19317553
       4194.7500      0.17449955
       4196.7400      0.17212872
       4198.7300      0.17762010
       4200.7200      0.18800721
       4202.7100      0.18074541
       4204.7000      0.18001081
       4206.6900      0.21015330
       4208.6800      0.20295316
       4210.6700      0.22818786
       4212.6600      0.23231348
       4214.6500      0.22762966
       4216.6400      0.24006412
       4218.6300      0.24521413
       4220.6200      0.24671073
       4222.6100      0.23421717
       4224.6000      0.22959100
       4226.5900      0.24912783
       4228.5800      0.26795448
       4230.5700      0.27054716
       4232.5600      0.25740404
       4234.5500      0.25558176
       4236.5400      0.25537650
       4238.5300      0.25848797
       4240.5200      0.26419851
       4242.5100      0.26217009
       4244.5000      0.25759209
       4246.4900      0.26318587
       4248.4800      0.25233206
       4250.4700      0.24237556
       4252.4600      0.24225968
       4254.4500      0.25808217
       4256.4400      0.27221108
       4258.4300      0.26903473
       4260.4200      0.26811737
       4262.4100      0.26166589
       4264.4000      0.25156045
       4266.3900      0.24752842
       4268.3800      0.26735696
       4270.3700      0.28720354
       4272.3600      0.27402310
       4274.3500      0.23690212
       4276.3400      0.25726503
       4278.3300      0.26757554
       4280.3200      0.25925286
       4282.3100      0.26534777
       4284.3000      0.26810413
       4286.2900      0.25774202
       4288.2800      0.25436579
       4290.2700      0.26134740
       4292.2600      0.25361890
       4294.2500      0.25432090
       4296.2400      0.26272590
       4298.2300      0.26035214
       4300.2200      0.25169866
       4302.2100      0.26893533
       4304.2000      0.28505703
       4306.1900      0.30004382
       4308.1800      0.26860829
       4310.1700      0.26044063
       4312.1600      0.26570652
       4314.1500      0.26594367
       4316.1400      0.26977648
       4318.1300      0.28303911
       4320.1200      0.28908039
       4322.1100      0.27947578
       4324.1000      0.26484104
       4326.0900      0.26670416
       4328.0800      0.28047612
       4330.0700      0.27306746
       4332.0600      0.28145096
       4334.0500      0.27873224
       4336.0400      0.27489689
       4338.0300      0.27432540
       4340.0200      0.27445643
       4342.0100      0.28320659
       4344.0000      0.27700934
       4345.9900      0.26948189
       4347.9800      0.27407532
       4349.9700      0.27455873
       4351.9600      0.27872670
       4353.9500      0.28106806
       4355.9400      0.27011280
       4357.9300      0.27936544
       4359.9200      0.29632131
       4361.9100      0.29775974
       4363.9000      0.28622618
       4365.8901      0.29368831
       4367.8800      0.29724229
       4369.8700      0.30986025
       4371.8600      0.30271856
       4373.8500      0.29705702
       4375.8400      0.30957168
       4377.8300      0.29606482
       4379.8200      0.29731607
       4381.8100      0.28583785
       4383.8000      0.27857245
       4385.7900      0.30583675
       4387.7800      0.28953960
       4389.7700      0.28792697
       4391.7600      0.28263613
       4393.7500      0.27336499
       4395.7400      0.28194681
       4397.7300      0.29044545
       4399.7200      0.28848276
       4401.7100      0.25742833
       4403.7000      0.25105785
       4405.6900      0.26024245
       4407.6800      0.26263032
       4409.6700      0.25428168
       4411.6600      0.25222854
       4413.6500      0.25326857
       4415.6400      0.25656381
       4417.6300      0.27264910
       4419.6200      0.26784482
       4421.6100      0.25777276
       4423.6000      0.24799844
       4425.5900      0.23882438
       4427.5800      0.24307512
       4429.5700      0.24801830
       4431.5600      0.25625177
       4433.5500      0.25716222
       4435.5400      0.24104292
       4437.5300      0.24748719
       4439.5200      0.25100252
       4441.5100      0.25490677
       4443.5000      0.26798233
       4445.4900      0.27446149
       4447.4800      0.26282763
       4449.4700      0.26276818
       4451.4600      0.26636130
       4453.4500      0.26231216
       4455.4400      0.26776464
       4457.4300      0.27593097
       4459.4200      0.27848776
       4461.4100      0.30819091
       4463.4000      0.32018666
       4465.3900      0.31423887
       4467.3800      0.30192059
       4469.3700      0.29762762
       4471.3600      0.30981810
       4473.3500      0.30228685
       4475.3400      0.32063724
       4477.3300      0.34810460
       4479.3200      0.34241555
       4481.3100      0.32994473
       4483.3000      0.34801495
       4485.2900      0.35366755
       4487.2800      0.36576466
       4489.2700      0.37055803
       4491.2600      0.36850464
       4493.2500      0.36966343
       4495.2400      0.39517295
       4497.2300      0.40057399
       4499.2200      0.40490677
       4501.2100      0.42471916
       4503.2000      0.42637333
       4505.1900      0.42720969
       4507.1800      0.42736554
       4509.1700      0.45161528
       4511.1600      0.46412506
       4513.1500      0.44903611
       4515.1400      0.47002516
       4517.1300      0.48782837
       4519.1200      0.49897364
       4521.1100      0.49721172
       4523.1000      0.51243308
       4525.0900      0.52026578
       4527.0800      0.52313111
       4529.0700      0.54401826
       4531.0600      0.55600686
       4533.0500      0.54781964
       4535.0400      0.56355174
       4537.0300      0.56848672
       4539.0200      0.59691562
       4541.0100      0.60730680
       4543.0000      0.59463378
       4544.9900      0.60445613
       4546.9800      0.61572760
       4548.9700      0.62804335
       4550.9600      0.64110479
       4552.9500      0.63823285
       4554.9400      0.64336788
       4556.9300      0.66342367
       4558.9200      0.66514914
       4560.9100      0.67766171
       4562.9000      0.68003129
       4564.8900      0.68576385
       4566.8800      0.70027278
       4568.8700      0.72139496
       4570.8600      0.70834050
       4572.8500      0.72514754
       4574.8400      0.70009263
       4576.8300      0.72383066
       4578.8200      0.76075963
       4580.8100      0.76774997
       4582.8000      0.75012387
       4584.7900      0.80467674
       4586.7800      0.81614677
       4588.7700      0.80864225
       4590.7600      0.81724179
       4592.7500      0.83182170
       4594.7400      0.82758841
       4596.7300      0.83919720
       4598.7200      0.86112557
       4600.7100      0.88185076
       4602.7000      0.87547027
       4604.6900      0.87955230
       4606.6800      0.88392621
       4608.6700      0.86167786
       4610.6599      0.86057009
       4612.6500      0.86104513
       4614.6400      0.86617718
       4616.6300      0.86787436
       4618.6200      0.85884652
       4620.6100      0.87562579
       4622.6000      0.88656441
       4624.5900      0.88402710
       4626.5800      0.87379268
       4628.5700      0.87352621
       4630.5600      0.87612814
       4632.5500      0.86925000
       4634.5400      0.88335021
       4636.5300      0.89408820
       4638.5200      0.88745441
       4640.5100      0.88436801
       4642.5000      0.89221936
       4644.4900      0.88878900
       4646.4800      0.87700200
       4648.4700      0.87422550
       4650.4600      0.85773217
       4652.4500      0.84820208
       4654.4400      0.84661525
       4656.4300      0.83600401
       4658.4200      0.85333723
       4660.4100      0.84170750
       4662.4000      0.82405314
       4664.3900      0.82646152
       4666.3800      0.82218135
       4668.3700      0.81645675
       4670.3600      0.79308938
       4672.3500      0.78155269
       4674.3400      0.76200379
       4676.3300      0.75042741
       4678.3200      0.78366547
       4680.3100      0.77347893
       4682.3000      0.74778010
       4684.2900      0.72631554
       4686.2800      0.73227536
       4688.2700      0.72718346
       4690.2600      0.71243498
       4692.2500      0.72185224
       4694.2400      0.70900586
       4696.2300      0.71477857
       4698.2200      0.68944115
       4700.2100      0.66935994
       4702.2000      0.66203906
       4704.1900      0.65491734
       4706.1800      0.65302792
       4708.1700      0.62832397
       4710.1600      0.60752431
       4712.1500      0.59475418
       4714.1400      0.59381201
       4716.1300      0.60119791
       4718.1200      0.60774561
       4720.1100      0.58327799
       4722.1000      0.57427920
       4724.0900      0.57613795
       4726.0800      0.57386983
       4728.0700      0.57223166
       4730.0600      0.57193143
       4732.0500      0.56254694
       4734.0400      0.55598324
       4736.0300      0.56222301
       4738.0200      0.55639443
       4740.0100      0.55951072
       4742.0000      0.57147851
       4743.9900      0.56888191
       4745.9800      0.55900138
       4747.9700      0.54992048
       4749.9600      0.55231409
       4751.9500      0.55791086
       4753.9400      0.55320467
       4755.9300      0.55015043
       4757.9200      0.55055615
       4759.9100      0.55106040
       4761.9000      0.54214736
       4763.8900      0.52236279
       4765.8800      0.51159846
       4767.8700      0.51919224
       4769.8600      0.51598169
       4771.8500      0.50718155
       4773.8400      0.51217361
       4775.8300      0.51224332
       4777.8200      0.49644697
       4779.8100      0.49523822
       4781.8000      0.49525752
       4783.7900      0.48532352
       4785.7800      0.47533090
       4787.7700      0.46792545
       4789.7600      0.46385818
       4791.7500      0.45241568
       4793.7400      0.44700374
       4795.7300      0.44496899
       4797.7200      0.44425792
       4799.7100      0.44416972
       4801.7000      0.44025600
       4803.6900      0.43700021
       4805.6800      0.44059392
       4807.6700      0.43569455
       4809.6600      0.43858255
       4811.6500      0.43888013
       4813.6400      0.43425159
       4815.6300      0.43420852
       4817.6200      0.43849014
       4819.6100      0.44095474
       4821.6000      0.44175991
       4823.5900      0.45434495
       4825.5800      0.46749645
       4827.5700      0.46489371
       4829.5600      0.46026977
       4831.5500      0.46874815
       4833.5400      0.48317779
       4835.5300      0.49230854
       4837.5200      0.49526502
       4839.5100      0.49103424
       4841.5000      0.49416337
       4843.4900      0.51044129
       4845.4800      0.50064391
       4847.4700      0.49843438
       4849.4600      0.50313518
       4851.4500      0.50663212
       4853.4400      0.50626811
       4855.4300      0.51361307
       4857.4200      0.52051649
       4859.4100      0.50946842
       4861.4000      0.50307826
       4863.3900      0.49953505
       4865.3800      0.49757235
       4867.3700      0.48776835
       4869.3600      0.47796357
       4871.3500      0.47603288
       4873.3400      0.47131983
       4875.3300      0.47615636
       4877.3200      0.48313530
       4879.3100      0.48242886
       4881.3000      0.49716009
       4883.2900      0.49593678
       4885.2800      0.48766518
       4887.2700      0.48594070
       4889.2600      0.49191321
       4891.2500      0.48814528
       4893.2400      0.47584001
       4895.2300      0.49514258
       4897.2200      0.51548038
       4899.2100      0.50418859
       4901.2000      0.50685273
       4903.1900      0.52130999
       4905.1800      0.51414794
       4907.1700      0.50077565
       4909.1600      0.51093488
       4911.1500      0.52678836
       4913.1400      0.52892772
       4915.1300      0.52006126
       4917.1200      0.51489031
       4919.1100      0.52437816
       4921.1000      0.53666211
       4923.0900      0.54223476
       4925.0800      0.55010496
       4927.0700      0.55886719
       4929.0600      0.56150418
       4931.0500      0.56179147
       4933.0400      0.56798978
       4935.0300      0.58374351
       4937.0200      0.58709527
       4939.0100      0.60321294
       4941.0000      0.57137217
       4942.9900      0.51004018
       4944.9800      0.61385746
       4946.9700      0.65654022
       4948.9600      0.63248909
       4950.9500      0.65589861
       4952.9400      0.67786591
       4954.9300      0.68502948
       4956.9200      0.70090562
       4958.9100      0.70821828
       4960.9000      0.72233251
       4962.8900      0.72246680
       4964.8800      0.71211562
       4966.8700      0.72562740
       4968.8600      0.76581661
       4970.8500      0.77250206
       4972.8400      0.76819841
       4974.8300      0.76845292
       4976.8200      0.76933186
       4978.8100      0.75669177
       4980.8000      0.75711224
       4982.7900      0.76204692
       4984.7800      0.75327593
       4986.7700      0.75539128
       4988.7600      0.73854152
       4990.7500      0.73582562
       4992.7400      0.72239208
       4994.7300      0.70370480
       4996.7200      0.71521305
       4998.7100      0.69374978
       5000.7000      0.67748983
       5002.6900      0.67752128
       5004.6800      0.66945645
       5006.6700      0.64193803
       5008.6600      0.60290571
       5010.6500      0.59522246
       5012.6400      0.58245406
       5014.6300      0.56273684
       5016.6200      0.55384872
       5018.6100      0.53597050
       5020.6000      0.52027397
       5022.5900      0.51848597
       5024.5800      0.50323859
       5026.5700      0.50538813
       5028.5600      0.52147989
       5030.5500      0.51249408
       5032.5400      0.50457126
       5034.5300      0.48460574
       5036.5200      0.45444513
       5038.5100      0.44935413
       5040.5000      0.45104156
       5042.4900      0.43739854
       5044.4800      0.42355514
       5046.4700      0.42697571
       5048.4600      0.43087941
       5050.4500      0.42060543
       5052.4400      0.41105011
       5054.4300      0.41152051
       5056.4200      0.41076573
       5058.4100      0.40757140
       5060.4000      0.41223007
       5062.3900      0.41167354
       5064.3800      0.40179384
       5066.3700      0.40514798
       5068.3600      0.40763069
       5070.3500      0.40214550
       5072.3400      0.39753998
       5074.3300      0.40204324
       5076.3200      0.41006494
       5078.3100      0.41339883
       5080.3000      0.41193760
       5082.2900      0.41113518
       5084.2800      0.41904114
       5086.2700      0.42684400
       5088.2600      0.42646322
       5090.2500      0.41638877
       5092.2400      0.41107564
       5094.2300      0.42091899
       5096.2200      0.42810960
       5098.2100      0.43424724
       5100.2000      0.45202219
       5102.1900      0.45732878
       5104.1800      0.44651421
       5106.1700      0.44636251
       5108.1600      0.45278408
       5110.1500      0.46858146
       5112.1400      0.48454365
       5114.1300      0.48103359
       5116.1200      0.48783272
       5118.1100      0.49598577
       5120.1000      0.50229989
       5122.0900      0.51691314
       5124.0800      0.50961472
       5126.0700      0.51422628
       5128.0600      0.53948143
       5130.0500      0.54638696
       5132.0400      0.53848156
       5134.0300      0.53289163
       5136.0200      0.53598195
       5138.0100      0.55690680
       5140.0000      0.56588790
       5141.9900      0.55794560
       5143.9800      0.57252692
       5145.9700      0.58073914
       5147.9600      0.58553367
       5149.9500      0.58638438
       5151.9400      0.58727743
       5153.9300      0.59210369
       5155.9200      0.59392408
       5157.9100      0.58860736
       5159.9000      0.58790606
       5161.8900      0.60067950
       5163.8800      0.60614404
       5165.8700      0.60435593
       5167.8600      0.59370912
       5169.8500      0.58959292
       5171.8400      0.59010993
       5173.8300      0.60243504
       5175.8200      0.61961854
       5177.8100      0.61625912
       5179.8000      0.61400770
       5181.7900      0.61980534
       5183.7800      0.62983401
       5185.7700      0.62670324
       5187.7600      0.61633844
       5189.7500      0.62427571
       5191.7400      0.63895266
       5193.7300      0.66176113
       5195.7200      0.66822964
       5197.7100      0.65027253
       5199.7000      0.64699897
       5201.6900      0.64870928
       5203.6800      0.64001380
       5205.6700      0.63832965
       5207.6600      0.64254304
       5209.6499      0.65960933
       5211.6400      0.66469612
       5213.6300      0.66396841
       5215.6200      0.67414543
       5217.6100      0.67911941
       5219.6000      0.68254614
       5221.5900      0.69454132
       5223.5800      0.70352409
       5225.5700      0.70862122
       5227.5600      0.70829995
       5229.5500      0.70868585
       5231.5400      0.71547439
       5233.5300      0.73524860
       5235.5200      0.75130151
       5237.5100      0.74880511
       5239.5000      0.74868741
       5241.4900      0.75319839
       5243.4800      0.76421246
       5245.4700      0.76875105
       5247.4600      0.75731246
       5249.4500      0.76185947
       5251.4400      0.78009411
       5253.4300      0.78480716
       5255.4200      0.78446764
       5257.4100      0.78471565
       5259.4000      0.79766920
       5261.3900      0.80359575
       5263.3800      0.78961241
       5265.3700      0.79187144
       5267.3600      0.79894195
       5269.3500      0.81253483
       5271.3400      0.82548857
       5273.3300      0.83067058
       5275.3200      0.83442045
       5277.3100      0.82953524
       5279.3000      0.84925796
       5281.2900      0.86773025
       5283.2800      0.87243386
       5285.2700      0.87292477
       5287.2600      0.87585225
       5289.2500      0.89817557
       5291.2400      0.91666814
       5293.2300      0.91202208
       5295.2200      0.90666963
       5297.2100      0.91102192
       5299.2000      0.91593714
       5301.1900      0.93381118
       5303.1800      0.94389227
       5305.1700      0.93154574
       5307.1600      0.93953636
       5309.1500      0.95714378
       5311.1400      0.94951884
       5313.1300      0.94023312
       5315.1200      0.94338717
       5317.1100      0.93704325
       5319.1000      0.93717002
       5321.0900      0.96344287
       5323.0800      0.96717168
       5325.0700      0.95449526
       5327.0600      0.96117603
       5329.0500      0.97660661
       5331.0400      0.97494149
       5333.0300      0.99392010
       5335.0200       1.0108189
       5337.0100       1.0088437
       5339.0000       1.0215190
       5340.9900       1.0203298
       5342.9800       1.0096521
       5344.9700       1.0172110
       5346.9600       1.0311338
       5348.9500       1.0393641
       5350.9400       1.0377080
       5352.9300       1.0363454
       5354.9200       1.0453950
       5356.9100       1.0498488
       5358.9000       1.0315679
       5360.8900       1.0261859
       5362.8800       1.0384605
       5364.8700       1.0337639
       5366.8600       1.0296320
       5368.8500       1.0368536
       5370.8400       1.0377418
       5372.8300       1.0450991
       5374.8200       1.0455751
       5376.8100       1.0439809
       5378.8000       1.0444543
       5380.7900       1.0419467
       5382.7800       1.0385686
       5384.7700       1.0300372
       5386.7600       1.0301471
       5388.7500       1.0298059
       5390.7400       1.0192591
       5392.7300       1.0157428
       5394.7200       1.0264400
       5396.7100       1.0228094
       5398.7000       1.0173158
       5400.6900       1.0195593
       5402.6800       1.0030982
       5404.6700      0.99318403
       5406.6600      0.98827929
       5408.6500      0.99401828
       5410.6400      0.99510874
       5412.6300      0.97549234
       5414.6200      0.96176219
       5416.6100      0.95453180
       5418.6000      0.94438893
       5420.5900      0.95126246
       5422.5800      0.94276712
       5424.5700      0.91861006
       5426.5600      0.91659481
       5428.5500      0.90969550
       5430.5400      0.90731107
       5432.5300      0.89710143
       5434.5200      0.89805959
       5436.5100      0.90317019
       5438.5000      0.87662529
       5440.4900      0.85977560
       5442.4800      0.86601401
       5444.4700      0.86909994
       5446.4600      0.86327809
       5448.4500      0.86619002
       5450.4400      0.87354583
       5452.4300      0.87030859
       5454.4200      0.87130023
       5456.4100      0.87544013
       5458.4000      0.88265971
       5460.3900      0.90210392
       5462.3800      0.90874912
       5464.3700      0.90663539
       5466.3600      0.91401338
       5468.3500      0.93492103
       5470.3400      0.95635419
       5472.3300      0.97964637
       5474.3200       1.0030362
       5476.3100       1.0100676
       5478.3000       1.0451292
       5480.2900       1.0811401
       5482.2800       1.0977170
       5484.2700       1.1349868
       5486.2600       1.1636267
       5488.2500       1.1859299
       5490.2400       1.2054372
       5492.2300       1.2130315
       5494.2200       1.2447688
       5496.2100       1.2899743
       5498.2000       1.3167499
       5500.1900       1.3311896
       5502.1800       1.3510095
       5504.1700       1.3789687
       5506.1600       1.3897538
       5508.1500       1.4057235
       5510.1400       1.4425521
       5512.1300       1.4622753
       5514.1200       1.4756591
       5516.1100       1.5066288
       5518.1000       1.5251716
       5520.0900       1.5139450
       5522.0800       1.5036785
       5524.0700       1.5094990
       5526.0600       1.5119540
       5528.0500       1.5100546
       5530.0400       1.5107056
       5532.0300       1.5035175
       5534.0200       1.4928822
       5536.0100       1.4848207
       5538.0000       1.4714451
       5539.9900       1.4616462
       5541.9800       1.4574520
       5543.9700       1.4384119
       5545.9600       1.4071032
       5547.9500       1.3793315
       5549.9400       1.3675222
       5551.9300       1.3601208
       5553.9200       1.3399422
       5555.9100       1.3175944
       5557.9000       1.2992866
       5559.8900       1.2780051
       5561.8800       1.2528285
       5563.8700       1.2328661
       5565.8600       1.2158862
       5567.8500       1.1807995
       5569.8400       1.1370709
       5571.8300       1.1151455
       5573.8200       1.0963841
       5575.8100       1.0731394
       5577.8000       1.0587657
       5579.7900       1.0211919
       5581.7800      0.99119900
       5583.7700      0.98944429
       5585.7600      0.98245773
       5587.7500      0.97414221
       5589.7400      0.95524286
       5591.7300      0.94489443
       5593.7200      0.94128660
       5595.7100      0.94233627
       5597.7000      0.94914134
       5599.6900      0.94623260
       5601.6800      0.94043057
       5603.6700      0.93843895
       5605.6600      0.95879996
       5607.6500      0.97054214
       5609.6400      0.97053548
       5611.6300      0.97975070
       5613.6200      0.99369407
       5615.6100       1.0124019
       5617.6000       1.0293241
       5619.5900       1.0334423
       5621.5800       1.0374653
       5623.5700       1.0648519
       5625.5600       1.0863636
       5627.5500       1.0917819
       5629.5400       1.0926151
       5631.5300       1.0897885
       5633.5200       1.0992902
       5635.5100       1.1381226
       5637.5000       1.1546721
       5639.4900       1.1593546
       5641.4800       1.1596820
       5643.4700       1.1697012
       5645.4600       1.2021920
       5647.4500       1.1909718
       5649.4400       1.1739803
       5651.4300       1.1833418
       5653.4200       1.1664356
       5655.4100       1.1442119
       5657.4000       1.1417816
       5659.3900       1.1382663
       5661.3800       1.1071630
       5663.3700       1.0796534
       5665.3600       1.0601332
       5667.3500       1.0185686
       5669.3400      0.98703493
       5671.3300      0.95610422
       5673.3200      0.91812195
       5675.3100      0.88628477
       5677.3000      0.86414998
       5679.2900      0.83183238
       5681.2800      0.79919385
       5683.2700      0.78624412
       5685.2600      0.77175886
       5687.2500      0.75543320
       5689.2400      0.72722850
       5691.2300      0.70577358
       5693.2200      0.70678633
       5695.2100      0.69748939
       5697.2000      0.68169641
       5699.1900      0.67155895
       5701.1800      0.66338777
       5703.1700      0.65471580
       5705.1600      0.64365042
       5707.1500      0.62785658
       5709.1400      0.61884867
       5711.1300      0.60560273
       5713.1200      0.59369371
       5715.1100      0.59191891
       5717.1000      0.58334074
       5719.0900      0.56903519
       5721.0800      0.57136257
       5723.0700      0.58514989
       5725.0600      0.58954657
       5727.0500      0.58937237
       5729.0400      0.59645123
       5731.0300      0.60220727
       5733.0200      0.59064016
       5735.0100      0.58633324
       5737.0000      0.59120391
       5738.9900      0.59145007
       5740.9800      0.58951890
       5742.9700      0.57961029
       5744.9600      0.57903712
       5746.9500      0.57799217
       5748.9400      0.56905546
       5750.9300      0.56344494
       5752.9200      0.55115350
       5754.9100      0.54542054
       5756.9000      0.54403643
       5758.8900      0.54213387
       5760.8800      0.54483096
       5762.8700      0.54402912
       5764.8600      0.54594745
       5766.8500      0.54518872
       5768.8400      0.54286124
       5770.8300      0.53254147
       5772.8200      0.52106787
       5774.8100      0.52309529
       5776.8000      0.52170541
       5778.7900      0.51943822
       5780.7800      0.52211346
       5782.7700      0.52246338
       5784.7600      0.52628257
       5786.7500      0.52454127
       5788.7400      0.52835219
       5790.7300      0.53553273
       5792.7200      0.53943423
       5794.7100      0.53742524
       5796.7000      0.53189086
       5798.6900      0.54515570
       5800.6800      0.55150771
       5802.6700      0.54996553
       5804.6600      0.54818420
       5806.6500      0.54817264
       5808.6401      0.55922031
       5810.6300      0.57396120
       5812.6200      0.58914639
       5814.6100      0.60644558
       5816.6000      0.61573257
       5818.5900      0.62187499
       5820.5800      0.63666072
       5822.5700      0.65978029
       5824.5600      0.67457986
       5826.5500      0.68051189
       5828.5400      0.70795787
       5830.5300      0.74953584
       5832.5200      0.77337109
       5834.5100      0.78825296
       5836.5000      0.80966893
       5838.4900      0.83342230
       5840.4800      0.85341317
       5842.4700      0.87659653
       5844.4600      0.90054476
       5846.4500      0.91563135
       5848.4400      0.93982244
       5850.4300      0.97141022
       5852.4200      0.99432916
       5854.4100       1.0138595
       5856.4000       1.0282617
       5858.3900       1.0487197
       5860.3800       1.0605998
       5862.3700       1.0686372
       5864.3600       1.0943045
       5866.3500       1.1157483
       5868.3400       1.1346952
       5870.3300       1.1504723
       5872.3200       1.1606829
       5874.3100       1.1683906
       5876.3000       1.1898917
       5878.2900       1.2161901
       5880.2800       1.2215415
       5882.2700       1.2263579
       5884.2600       1.2219530
       5886.2500       1.2142750
       5888.2400       1.2132757
       5890.2300       1.1996016
       5892.2200       1.2008465
       5894.2100       1.2225403
       5896.2000       1.2378504
       5898.1900       1.2529176
       5900.1800       1.2673986
       5902.1700       1.2646644
       5904.1600       1.2456011
       5906.1500       1.2499048
       5908.1400       1.2902373
       5910.1300       1.3088698
       5912.1200       1.3031237
       5914.1100       1.2772228
       5916.1000       1.2477465
       5918.0900       1.2496760
       5920.0800       1.2527959
       5922.0700       1.2617453
       5924.0600       1.2811142
       5926.0500       1.2842502
       5928.0400       1.2844759
       5930.0300       1.2929086
       5932.0200       1.3057104
       5934.0100       1.3098877
       5936.0000       1.3129413
       5937.9900       1.2992218
       5939.9800       1.2869379
       5941.9700       1.2749513
       5943.9600       1.2794313
       5945.9500       1.2858270
       5947.9400       1.2772254
       5949.9300       1.2890705
       5951.9200       1.2913931
       5953.9100       1.2798228
       5955.9000       1.2727449
       5957.8900       1.2633061
       5959.8800       1.2432919
       5961.8700       1.2396148
       5963.8600       1.2370017
       5965.8500       1.2212230
       5967.8400       1.2247239
       5969.8300       1.2281475
       5971.8200       1.2183694
       5973.8100       1.2213783
       5975.8000       1.2160509
       5977.7900       1.2133716
       5979.7800       1.2186868
       5981.7700       1.2135578
       5983.7600       1.2154139
       5985.7500       1.2134004
       5987.7400       1.2057114
       5989.7300       1.1998370
       5991.7200       1.1964336
       5993.7100       1.2067092
       5995.7000       1.1969010
       5997.6900       1.1662077
       5999.6800       1.1551044
       6001.6700       1.1589713
       6003.6600       1.1603467
       6005.6500       1.1427786
       6007.6400       1.1281559
       6009.6300       1.1313959
       6011.6200       1.1218950
       6013.6100       1.1052707
       6015.6000       1.0903662
       6017.5900       1.0832669
       6019.5800       1.0773671
       6021.5700       1.0711052
       6023.5600       1.0662855
       6025.5500       1.0494339
       6027.5400       1.0341754
       6029.5300       1.0239653
       6031.5200       1.0342804
       6033.5100       1.0299378
       6035.5000       1.0083712
       6037.4900       1.0012171
       6039.4800      0.98400355
       6041.4700      0.97191573
       6043.4600      0.97776222
       6045.4500      0.96498822
       6047.4400      0.95364380
       6049.4300      0.95037240
       6051.4200      0.94912690
       6053.4099      0.92944245
       6055.4000      0.90648815
       6057.3900      0.90792897
       6059.3800      0.91040056
       6061.3700      0.90370191
       6063.3600      0.88276348
       6065.3500      0.86169759
       6067.3400      0.84759869
       6069.3300      0.84489169
       6071.3200      0.84432855
       6073.3100      0.83557810
       6075.3000      0.81823138
       6077.2900      0.80600863
       6079.2800      0.81131707
       6081.2700      0.81846028
       6083.2600      0.82237632
       6085.2500      0.80943967
       6087.2400      0.81263465
       6089.2300      0.83964445
       6091.2200      0.84004976
       6093.2100      0.83594268
       6095.2000      0.84740614
       6097.1900      0.84804038
       6099.1800      0.85208139
       6101.1700      0.85968155
       6103.1600      0.85830241
       6105.1500      0.86537694
       6107.1400      0.87290028
       6109.1300      0.87075434
       6111.1200      0.87593400
       6113.1100      0.88939286
       6115.1000      0.89168119
       6117.0900      0.88040652
       6119.0800      0.87257483
       6121.0700      0.88185150
       6123.0600      0.88979260
       6125.0500      0.89571277
       6127.0400      0.90040906
       6129.0300      0.88287954
       6131.0200      0.88781493
       6133.0100      0.90259665
       6135.0000      0.89811748
       6136.9900      0.89060585
       6138.9800      0.89690551
       6140.9700      0.91109029
       6142.9600      0.91362984
       6144.9500      0.90838792
       6146.9400      0.91912537
       6148.9300      0.91726070
       6150.9200      0.90192346
       6152.9100      0.90363270
       6154.9000      0.91815586
       6156.8900      0.91315603
       6158.8800      0.92112034
       6160.8700      0.92263085
       6162.8600      0.91125645
       6164.8500      0.86152704
       6166.8400      0.88043515
       6168.8300      0.93227015
       6170.8200      0.93926631
       6172.8100      0.92790974
       6174.8000      0.93175104
       6176.7900      0.94280712
       6178.7800      0.94728637
       6180.7700      0.96090104
       6182.7600      0.97817078
       6184.7500      0.98128784
       6186.7400      0.97783093
       6188.7300       1.0095778
       6190.7200       1.0368183
       6192.7100       1.0310120
       6194.7000       1.0372617
       6196.6900       1.0588552
       6198.6800       1.0736503
       6200.6700       1.0758536
       6202.6600       1.0898271
       6204.6500       1.1305166
       6206.6400       1.1524547
       6208.6300       1.1419793
       6210.6200       1.1582918
       6212.6100       1.1835174
       6214.6000       1.1903200
       6216.5900       1.2082305
       6218.5800       1.2106646
       6220.5700       1.2003796
       6222.5600       1.2183190
       6224.5500       1.2487935
       6226.5400       1.2722938
       6228.5300       1.2853954
       6230.5200       1.2859253
       6232.5100       1.2793551
       6234.5000       1.2846874
       6236.4900       1.3015058
       6238.4800       1.2862726
       6240.4700       1.2900880
       6242.4600       1.3055361
       6244.4500       1.2970884
       6246.4400       1.2913123
       6248.4300       1.2916543
       6250.4200       1.2861228
       6252.4100       1.2857013
       6254.4000       1.2838503
       6256.3900       1.3021376
       6258.3800       1.3010676
       6260.3700       1.3073643
       6262.3600       1.3126743
       6264.3500       1.3122714
       6266.3400       1.2967369
       6268.3300       1.2994140
       6270.3200       1.3102587
       6272.3100       1.2922168
       6274.3000       1.2926971
       6276.2900       1.3110066
       6278.2800       1.3069386
       6280.2700       1.3075167
       6282.2600       1.3191414
       6284.2500       1.3155702
       6286.2400       1.3018253
       6288.2300       1.2917812
       6290.2200       1.2932036
       6292.2100       1.3061330
       6294.2000       1.3224467
       6296.1900       1.3259822
       6298.1800       1.3079058
       6300.1700       1.2936586
       6302.1600       1.2964716
       6304.1500       1.2743653
       6306.1400       1.2563652
       6308.1300       1.2638612
       6310.1200       1.2533960
       6312.1100       1.2244127
       6314.1000       1.1998425
       6316.0900       1.2031860
       6318.0800       1.2277818
       6320.0700       1.2295203
       6322.0600       1.2214126
       6324.0500       1.2160490
       6326.0400       1.1995606
       6328.0300       1.1984163
       6330.0200       1.2113348
       6332.0100       1.2054473
       6334.0000       1.1931993
       6335.9900       1.1877921
       6337.9800       1.1906924
       6339.9700       1.1830711
       6341.9600       1.1737824
       6343.9500       1.1566274
       6345.9400       1.1428490
       6347.9300       1.1430967
       6349.9200       1.1569041
       6351.9100       1.1599386
       6353.9000       1.1514295
       6355.8900       1.1400537
       6357.8800       1.1401418
       6359.8700       1.1372468
       6361.8600       1.1271621
       6363.8500       1.1336912
       6365.8400       1.1405045
       6367.8300       1.1271140
       6369.8200       1.1244466
       6371.8100       1.1242394
       6373.8000       1.1106899
       6375.7900       1.1089215
       6377.7800       1.1106304
       6379.7700       1.1023830
       6381.7600       1.0854194
       6383.7500       1.0751642
       6385.7400       1.0766136
       6387.7300       1.0759250
       6389.7200       1.0732000
       6391.7100       1.0706228
       6393.7000       1.0882127
       6395.6900       1.0960232
       6397.6800       1.0910569
       6399.6700       1.0841164
       6401.6600       1.0843394
       6403.6500       1.0785867
       6405.6400       1.0684087
       6407.6301       1.0618397
       6409.6200       1.0540842
       6411.6100       1.0429780
       6413.6000       1.0448278
       6415.5900       1.0444424
       6417.5800       1.0467170
       6419.5700       1.0454736
       6421.5600       1.0396812
       6423.5500       1.0405870
       6425.5400       1.0392888
       6427.5300       1.0369933
       6429.5200       1.0386580
       6431.5100       1.0543566
       6433.5000       1.0698846
       6435.4900       1.0553674
       6437.4800       1.0671401
       6439.4700       1.0771199
       6441.4600       1.0683820
       6443.4500       1.0793855
       6445.4400       1.1027990
       6447.4300       1.1066198
       6449.4200       1.1121515
       6451.4100       1.1203649
       6453.4000       1.1274739
       6455.3900       1.1389517
       6457.3800       1.1494179
       6459.3700       1.1636714
       6461.3600       1.1594928
       6463.3500       1.1596989
       6465.3400       1.1783811
       6467.3300       1.1867194
       6469.3200       1.1901310
       6471.3100       1.1957703
       6473.3000       1.1831633
       6475.2900       1.1743951
       6477.2800       1.1769144
       6479.2700       1.1783997
       6481.2600       1.1702427
       6483.2500       1.1682344
       6485.2400       1.1762528
       6487.2300       1.1806221
       6489.2200       1.1805462
       6491.2100       1.1801581
       6493.2000       1.1929188
       6495.1900       1.1885736
       6497.1800       1.1775522
       6499.1700       1.1784837
       6501.1600       1.1924509
       6503.1500       1.1884248
       6505.1400       1.2002316
       6507.1300       1.1996141
       6509.1200       1.1880817
       6511.1100       1.1908684
       6513.1000       1.1794082
       6515.0900       1.1712478
       6517.0800       1.1793925
       6519.0700       1.1651755
       6521.0600       1.1547467
       6523.0500       1.1597874
       6525.0400       1.1462902
       6527.0300       1.1350098
       6529.0200       1.1285198
       6531.0100       1.1128631
       6533.0000       1.1131918
       6534.9900       1.1227725
       6536.9800       1.1190435
       6538.9700       1.1154606
       6540.9600       1.1159959
       6542.9500       1.1137714
       6544.9400       1.1138146
       6546.9300       1.1168644
       6548.9200       1.1299165
       6550.9100       1.1377836
       6552.9000       1.1348740
       6554.8900       1.1319244
       6556.8800       1.1465713
       6558.8700       1.1591298
       6560.8600       1.1662210
       6562.8500       1.1712791
       6564.8400       1.1778217
       6566.8300       1.1724181
       6568.8200       1.1718135
       6570.8100       1.1778125
       6572.8000       1.1816882
       6574.7900       1.1725430
       6576.7800       1.1794800
       6578.7700       1.1901702
       6580.7600       1.1942585
       6582.7500       1.1861927
       6584.7400       1.1839776
       6586.7300       1.1895478
       6588.7200       1.2079236
       6590.7100       1.2149373
       6592.7000       1.2146906
       6594.6900       1.2087953
       6596.6800       1.1876899
       6598.6700       1.1611234
       6600.6600       1.1521238
       6602.6500       1.1570695
       6604.6400       1.1468405
       6606.6300       1.1243077
       6608.6200       1.1212868
       6610.6100       1.1218876
       6612.6000       1.1128948
       6614.5900       1.1136400
       6616.5800       1.1194081
       6618.5700       1.1238383
       6620.5600       1.1199430
       6622.5500       1.1180591
       6624.5400       1.1114619
       6626.5300       1.1004986
       6628.5200       1.0861547
       6630.5100       1.0960078
       6632.5000       1.0915731
       6634.4900       1.0769962
       6636.4800       1.0843697
       6638.4700       1.0706393
       6640.4600       1.0572932
       6642.4500       1.0562805
       6644.4400       1.0448289
       6646.4300       1.0456768
       6648.4200       1.0495204
       6650.4100       1.0460757
       6652.3999       1.0424151
       6654.3900       1.0510869
       6656.3800       1.0403505
       6658.3700       1.0325270
       6660.3600       1.0379806
       6662.3500       1.0419979
       6664.3400       1.0401906
       6666.3300       1.0493469
       6668.3200       1.0389516
       6670.3100       1.0261746
       6672.3000       1.0247851
       6674.2900       1.0316951
       6676.2800       1.0318818
       6678.2700       1.0229467
       6680.2600       1.0121196
       6682.2500       1.0195980
       6684.2400       1.0275482
       6686.2300       1.0175712
       6688.2200       1.0175949
       6690.2100       1.0064184
       6692.2000      0.98370302
       6694.1900      0.98116744
       6696.1800      0.99258762
       6698.1700      0.97978101
       6700.1600      0.98766598
       6702.1500      0.98487279
       6704.1400      0.96617526
       6706.1300      0.96689640
       6708.1200      0.97442789
       6710.1100      0.95905566
       6712.1000      0.95774428
       6714.0900      0.94636710
       6716.0800      0.94329317
       6718.0700      0.93759613
       6720.0600      0.93430414
       6722.0500      0.93188320
       6724.0400      0.93089605
       6726.0300      0.92450543
       6728.0200      0.91689184
       6730.0100      0.91932828
       6732.0000      0.91074298
       6733.9900      0.90012474
       6735.9800      0.89829936
       6737.9700      0.90836775
       6739.9600      0.89240012
       6741.9500      0.88277443
       6743.9400      0.89186491
       6745.9300      0.88691048
       6747.9200      0.87515887
       6749.9100      0.86879525
       6751.9000      0.86691410
       6753.8900      0.86108746
       6755.8800      0.85562271
       6757.8700      0.85593495
       6759.8600      0.85767879
       6761.8500      0.86359440
       6763.8400      0.86446477
       6765.8300      0.85271107
       6767.8200      0.84135987
       6769.8100      0.84236880
       6771.8000      0.84056100
       6773.7900      0.85525795
       6775.7800      0.86235059
       6777.7700      0.85959251
       6779.7600      0.85945547
       6781.7500      0.85975446
       6783.7400      0.86018623
       6785.7300      0.86562938
       6787.7200      0.86954938
       6789.7100      0.87273941
       6791.7000      0.86799606
       6793.6900      0.86798054
       6795.6800      0.87297348
       6797.6700      0.87392727
       6799.6600      0.87451539
       6801.6500      0.88105366
       6803.6400      0.86662132
       6805.6300      0.87265472
       6807.6200      0.87857178
       6809.6100      0.85553638
       6811.6000      0.85822378
       6813.5900      0.86703308
       6815.5800      0.86766221
       6817.5700      0.86633127
       6819.5600      0.85541639
       6821.5500      0.86164063
       6823.5400      0.86168319
       6825.5300      0.86129923
       6827.5200      0.87139192
       6829.5100      0.86742786
       6831.5000      0.86515231
       6833.4900      0.85134725
       6835.4800      0.83629047
       6837.4700      0.83819227
       6839.4600      0.84653644
       6841.4500      0.85190188
       6843.4400      0.85155583
       6845.4300      0.84060793
       6847.4200      0.84286261
       6849.4100      0.83713245
       6851.4000      0.81472762
       6853.3900      0.80261530
       6855.3800      0.81145133
       6857.3700      0.79904401
       6859.3600      0.78752904
       6861.3500      0.76883871
       6863.3400      0.77082765
       6865.3300      0.76176447
       6867.3200      0.76123018
       6869.3100      0.74771905
       6871.3000      0.74618095
       6873.2900      0.76056269
       6875.2800      0.77268866
       6877.2700      0.76345299
       6879.2600      0.74507468
       6881.2500      0.74801312
       6883.2400      0.73209962
       6885.2300      0.72414459
       6887.2200      0.72073228
       6889.2100      0.71565723
       6891.2000      0.72678604
       6893.1900      0.73595187
       6895.1800      0.73664616
       6897.1700      0.73833791
       6899.1600      0.72972068
       6901.1500      0.71071035
       6903.1400      0.70616230
       6905.1300      0.71217578
       6907.1200      0.70848853
       6909.1100      0.70475596
       6911.1000      0.70440559
       6913.0900      0.69075591
       6915.0800      0.68778718
       6917.0700      0.69041377
       6919.0600      0.70059066
       6921.0500      0.69852430
       6923.0400      0.69340115
       6925.0300      0.71074190
       6927.0200      0.72197688
       6929.0100      0.71152212
       6931.0000      0.70622336
       6932.9900      0.73375655
       6934.9800      0.71440547
       6936.9700      0.71389102
       6938.9600      0.71190515
       6940.9500      0.71636265
       6942.9400      0.73910452
       6944.9300      0.75011061
       6946.9200      0.74710063
       6948.9100      0.75235609
       6950.9000      0.76327270
       6952.8900      0.77659301
       6954.8800      0.78453347
       6956.8700      0.79718730
       6958.8600      0.80251101
       6960.8500      0.80125507
       6962.8400      0.80590703
       6964.8300      0.81384223
       6966.8200      0.82065943
       6968.8100      0.81517451
       6970.8000      0.81721081
       6972.7900      0.83288566
       6974.7800      0.83221811
       6976.7700      0.83454292
       6978.7600      0.84161811
       6980.7500      0.84171077
       6982.7400      0.84719923
       6984.7300      0.84371311
       6986.7200      0.85147578
       6988.7100      0.86487384
       6990.7000      0.85940000
       6992.6900      0.86380104
       6994.6800      0.86343711
       6996.6700      0.86888584
       6998.6600      0.86830286
       7000.6500      0.87479852
       7002.6400      0.87628016
       7004.6300      0.87584365
       7006.6200      0.87267336
       7008.6100      0.87913430
       7010.6000      0.88853418
       7012.5900      0.88405420
       7014.5800      0.87001087
       7016.5700      0.87017781
       7018.5600      0.88972508
       7020.5500      0.88024659
       7022.5400      0.85976178
       7024.5300      0.86502903
       7026.5200      0.87687291
       7028.5100      0.87609719
       7030.5000      0.86382648
       7032.4900      0.86083597
       7034.4800      0.86470499
       7036.4700      0.84739982
       7038.4600      0.84516916
       7040.4500      0.86078661
       7042.4400      0.85113219
       7044.4300      0.85135913
       7046.4200      0.85212100
       7048.4100      0.83601976
       7050.4000      0.83012747
       7052.3900      0.84411701
       7054.3800      0.83726645
       7056.3700      0.81817379
       7058.3600      0.80884313
       7060.3500      0.80608896
       7062.3400      0.81018828
       7064.3300      0.80898300
       7066.3200      0.80882112
       7068.3100      0.81850533
       7070.3000      0.83136360
       7072.2900      0.82010731
       7074.2800      0.80565390
       7076.2700      0.81916350
       7078.2600      0.83342099
       7080.2500      0.81993218
       7082.2400      0.81593120
       7084.2300      0.81428145
       7086.2200      0.79072840
       7088.2100      0.79382355
       7090.2000      0.81081635
       7092.1900      0.80580617
       7094.1800      0.79651882
       7096.1700      0.79364839
       7098.1600      0.78951133
       7100.1500      0.79693641
       7102.1400      0.79358324
       7104.1300      0.77873564
       7106.1200      0.78933282
       7108.1100      0.79225975
       7110.1000      0.79427219
       7112.0900      0.79347975
       7114.0800      0.79138140
       7116.0700      0.78427717
       7118.0600      0.79372828
       7120.0500      0.79802772
       7122.0400      0.80148230
       7124.0300      0.79889972
       7126.0200      0.79146725
       7128.0100      0.79844715
       7130.0000      0.78893892
       7131.9900      0.79124415
       7133.9800      0.79259889
       7135.9700      0.78654259
       7137.9600      0.77766261
       7139.9500      0.77786530
       7141.9400      0.78380257
       7143.9300      0.77722755
       7145.9200      0.79223296
       7147.9100      0.81004070
       7149.9000      0.80148087
       7151.8900      0.80306907
       7153.8800      0.81437151
       7155.8700      0.81836456
       7157.8600      0.81992046
       7159.8500      0.81310613
       7161.8400      0.82566036
       7163.8300      0.83374104
       7165.8200      0.82435296
       7167.8100      0.81859253
       7169.8000      0.80377201
       7171.7900      0.81333268
       7173.7800      0.83117906
       7175.7700      0.83373787
       7177.7600      0.83181586
       7179.7500      0.84514363
       7181.7400      0.85619242
       7183.7300      0.84897608
       7185.7200      0.83853628
       7187.7100      0.84780783
       7189.7000      0.84649358
       7191.6900      0.86750766
       7193.6800      0.85519487
       7195.6700      0.85649012
       7197.6600      0.86689893
       7199.6500      0.86142552
       7201.6400      0.84502946
       7203.6300      0.86346591
       7205.6200      0.87663175
       7207.6100      0.88317204
       7209.6000      0.87628682
       7211.5900      0.87658029
       7213.5800      0.87476234
       7215.5700      0.86209063
       7217.5600      0.87199010
       7219.5500      0.87104113
       7221.5400      0.87701745
       7223.5300      0.87902856
       7225.5200      0.87742551
       7227.5100      0.87777723
       7229.5000      0.88636428
       7231.4900      0.88925154
       7233.4800      0.89118383
       7235.4700      0.89833967
       7237.4600      0.90410043
       7239.4500      0.91622242
       7241.4400      0.90700122
       7243.4300      0.90933848
       7245.4200      0.93162131
       7247.4100      0.95044377
       7249.4000      0.94505556
       7251.3901      0.94998141
       7253.3800      0.95348061
       7255.3700      0.94698091
       7257.3600      0.95386850
       7259.3500      0.96359939
       7261.3400      0.96819697
       7263.3300      0.95884305
       7265.3200      0.96286470
       7267.3100      0.97242184
       7269.3000      0.98794223
       7271.2900      0.98300812
       7273.2800      0.98216522
       7275.2700      0.96973173
       7277.2600      0.96116438
       7279.2500      0.98812312
       7281.2400      0.99319769
       7283.2300       1.0016951
       7285.2200       1.0083226
       7287.2100       1.0001088
       7289.2000      0.99223503
       7291.1900      0.99863202
       7293.1800       1.0122207
       7295.1700       1.0220607
       7297.1600       1.0301542
       7299.1500       1.0349339
       7301.1400       1.0408566
       7303.1300       1.0341797
       7305.1200       1.0310637
       7307.1100       1.0530996
       7309.1000       1.0512407
       7311.0900       1.0310100
       7313.0800       1.0627012
       7315.0700       1.0554743
       7317.0600       1.0476780
       7319.0500       1.0501021
       7321.0400       1.0466720
       7323.0300       1.0495180
       7325.0200       1.0524104
       7327.0100       1.0544181
       7329.0000       1.0439948
       7330.9900       1.0290807
       7332.9800       1.0097483
       7334.9700       1.0217486
       7336.9600       1.0332914
       7338.9500       1.0164635
       7340.9400       1.0185105
       7342.9300       1.0126568
       7344.9200       1.0225476
       7346.9100       1.0147939
       7348.9000      0.99892766
       7350.8900       1.0026833
       7352.8800       1.0010530
       7354.8700       1.0176099
       7356.8600       1.0318625
       7358.8500       1.0212168
       7360.8400       1.0169018
       7362.8300       1.0105969
       7364.8200      0.99209822
       7366.8100      0.99294697
       7368.8000      0.99333122
       7370.7900      0.98951615
       7372.7800      0.98660283
       7374.7700      0.97432586
       7376.7600      0.95261841
       7378.7500      0.95628511
       7380.7400      0.94191115
       7382.7300      0.94917041
       7384.7200      0.94490942
       7386.7100      0.94903918
       7388.7000      0.94502772
       7390.6900      0.93805836
       7392.6800      0.94705906
       7394.6700      0.95943664
       7396.6600      0.95040901
       7398.6500      0.95598077
       7400.6400      0.94740365
       7402.6300      0.94949243
       7404.6200      0.94935953
       7406.6100      0.95173499
       7408.6000      0.93955986
       7410.5900      0.94837498
       7412.5800      0.94976369
       7414.5700      0.93022545
       7416.5600      0.92797091
       7418.5500      0.92248220
       7420.5400      0.91902120
       7422.5300      0.92516844
       7424.5200      0.93923127
       7426.5100      0.94022764
       7428.5000      0.93373721
       7430.4900      0.92567695
       7432.4800      0.90883253
       7434.4700      0.92110037
       7436.4600      0.91703861
       7438.4500      0.90083808
       7440.4400      0.90325908
       7442.4300      0.89425200
       7444.4200      0.89719153
       7446.4100      0.91073708
       7448.4000      0.89093216
       7450.3900      0.89170907
       7452.3800      0.89720889
       7454.3700      0.88709573
       7456.3600      0.88674976
       7458.3500      0.88759325
       7460.3400      0.87497007
       7462.3300      0.87506496
       7464.3200      0.88820598
       7466.3100      0.87380145
       7468.3000      0.86955910
       7470.2900      0.87098558
       7472.2800      0.85773609
       7474.2700      0.85414734
       7476.2600      0.85000535
       7478.2500      0.85894605
       7480.2400      0.85431540
       7482.2300      0.85206969
       7484.2200      0.84352074
       7486.2100      0.83026933
       7488.2000      0.83139685
       7490.1900      0.83425164
       7492.1800      0.84075006
       7494.1700      0.83348008
       7496.1600      0.82243550
       7498.1500      0.82232575
       7500.1400      0.81264394
       7502.1300      0.80435478
       7504.1200      0.78590777
       7506.1100      0.77931759
       7508.1000      0.77448510
       7510.0900      0.76377458
       7512.0800      0.76112676
       7514.0700      0.76160876
       7516.0600      0.74481229
       7518.0500      0.73268499
       7520.0400      0.74022041
       7522.0300      0.74267075
       7524.0200      0.75313995
       7526.0100      0.74489342
       7528.0000      0.74457889
       7529.9900      0.73278029
       7531.9800      0.71495252
       7533.9700      0.72195912
       7535.9600      0.71985270
       7537.9500      0.70292731
       7539.9400      0.69789956
       7541.9300      0.69872494
       7543.9200      0.68710690
       7545.9100      0.67791018
       7547.9000      0.66901041
       7549.8900      0.66099208
       7551.8800      0.66108321
       7553.8700      0.66167581
       7555.8600      0.65591090
       7557.8500      0.64596496
       7559.8400      0.64587081
       7561.8300      0.65036913
       7563.8200      0.64417126
       7565.8100      0.64217740
       7567.8000      0.63769130
       7569.7900      0.63065430
       7571.7800      0.62287739
       7573.7700      0.62000093
       7575.7600      0.60458216
       7577.7500      0.61215473
       7579.7400      0.59652545
       7581.7300      0.58419472
       7583.7200      0.59486325
       7585.7100      0.59348337
       7587.7000      0.57301655
       7589.6900      0.56599692
       7591.6800      0.55205919
       7593.6700      0.53154700
       7595.6600      0.51884164
       7597.6500      0.49556557
       7599.6400      0.51330661
       7601.6300      0.49168860
       7603.6200      0.49065966
       7605.6100      0.48008855
       7607.6000      0.49276830
       7609.5900      0.51877992
       7611.5800      0.48381645
       7613.5700      0.49379107
       7615.5600      0.50741346
       7617.5500      0.50017902
       7619.5400      0.48581972
       7621.5300      0.46327004
       7623.5200      0.44180958
       7625.5100      0.44450718
       7627.5000      0.44057453
       7629.4900      0.43797888
       7631.4800      0.45745254
       7633.4700      0.45030868
       7635.4600      0.43952683
       7637.4500      0.44474706
       7639.4400      0.43466985
       7641.4300      0.43508638
       7643.4200      0.43737092
       7645.4100      0.44808946
       7647.4000      0.44963319
       7649.3900      0.44982165
       7651.3800      0.46019749
       7653.3700      0.46469384
       7655.3600      0.46654311
       7657.3500      0.46912825
       7659.3400      0.47749224
       7661.3300      0.48704621
       7663.3200      0.48092365
       7665.3100      0.49616337
       7667.3000      0.50871196
       7669.2900      0.52339640
       7671.2800      0.54573165
       7673.2700      0.54598517
       7675.2600      0.56024303
       7677.2500      0.58223241
       7679.2400      0.59325760
       7681.2300      0.61068415
       7683.2200      0.63286501
       7685.2100      0.65515139
       7687.2000      0.66338346
       7689.1900      0.67723119
       7691.1800      0.69486612
       7693.1700      0.71682144
       7695.1600      0.74186220
       7697.1500      0.76323685
       7699.1400      0.78343390
       7701.1300      0.77863904
       7703.1200      0.80787888
       7705.1100      0.83029149
       7707.1000      0.83224659
       7709.0900      0.88262673
       7711.0800      0.88653056
       7713.0700      0.89991654
       7715.0600      0.90240269
       7717.0500      0.91530021
       7719.0400      0.95097516
       7721.0300      0.95226272
       7723.0200      0.97909959
       7725.0100      0.98725504
       7727.0000       1.0261295
       7728.9900       1.0603395
       7730.9800       1.0413238
       7732.9700       1.0366137
       7734.9600       1.0595472
       7736.9500       1.0656409
       7738.9400       1.0774973
       7740.9300       1.0980062
       7742.9200       1.1220870
       7744.9100       1.1334303
       7746.9000       1.1370757
       7748.8900       1.1324928
       7750.8800       1.1464675
       7752.8700       1.1797672
       7754.8600       1.1878693
       7756.8500       1.1755401
       7758.8400       1.1934391
       7760.8300       1.2130402
       7762.8200       1.2079009
       7764.8100       1.2128983
       7766.8000       1.2112525
       7768.7900       1.2260690
       7770.7800       1.2262597
       7772.7700       1.2278899
       7774.7600       1.2230510
       7776.7500       1.2319092
       7778.7400       1.2292433
       7780.7300       1.2264847
       7782.7200       1.2232417
       7784.7100       1.2381054
       7786.7000       1.2443152
       7788.6900       1.2230475
       7790.6800       1.2169898
       7792.6700       1.2071962
       7794.6600       1.2056969
       7796.6500       1.1869142
       7798.6400       1.1715551
       7800.6300       1.1817400
       7802.6200       1.1830836
       7804.6100       1.1683569
       7806.6000       1.1440640
       7808.5900       1.1362013
       7810.5800       1.1491596
       7812.5700       1.1504976
       7814.5600       1.1342170
       7816.5500       1.1415438
       7818.5400       1.1476387
       7820.5300       1.1396449
       7822.5200       1.1490540
       7824.5100       1.1258502
       7826.5000       1.1004130
       7828.4900       1.0959212
       7830.4800       1.0983103
       7832.4700       1.0924098
       7834.4600       1.0999826
       7836.4500       1.0829292
       7838.4400       1.1086458
       7840.4300       1.0960012
       7842.4200       1.1216695
       7844.4100       1.0961778
       7846.4000       1.0913602
       7848.3900       1.1095185
       7850.3801       1.0947311
       7852.3700       1.1042959
       7854.3600       1.0996371
       7856.3500       1.0622960
       7858.3400       1.0688914
       7860.3300       1.0635694
       7862.3200       1.0664067
       7864.3100       1.0776024
       7866.3000       1.0814059
       7868.2900       1.0709951
       7870.2800       1.0643189
       7872.2700       1.0670570
       7874.2600       1.0654186
       7876.2500       1.0731467
       7878.2400       1.0661706
       7880.2300       1.0549331
       7882.2200       1.0506668
       7884.2100       1.0454054
       7886.2000       1.0553777
       7888.1900       1.0593663
       7890.1800       1.0550885
       7892.1700       1.0596978
       7894.1600       1.0545227
       7896.1500       1.0402270
       7898.1400       1.0471390
       7900.1300       1.0483104
       7902.1200       1.0290342
       7904.1100       1.0394943
       7906.1000       1.0182584
       7908.0900       1.0329615
       7910.0800       1.0663185
       7912.0700       1.0481790
       7914.0600       1.0441645
       7916.0500       1.0331027
       7918.0400       1.0230263
       7920.0300       1.0390608
       7922.0200       1.0384609
       7924.0100       1.0272672
       7926.0000       1.0132848
       7927.9900       1.0155195
       7929.9800       1.0291615
       7931.9700       1.0282147
       7933.9600       1.0166765
       7935.9500       1.0166880
       7937.9400      0.99987803
       7939.9300      0.99476742
       7941.9200      0.98882870
       7943.9100      0.97442665
       7945.9000      0.98167839
       7947.8900      0.98789253
       7949.8800      0.96967210
       7951.8700      0.95894059
       7953.8600      0.96393482
       7955.8500      0.97003561
       7957.8400      0.96134133
       7959.8300      0.97324434
       7961.8200      0.98453546
       7963.8100      0.95570499
       7965.8000      0.94764637
       7967.7900      0.93573505
       7969.7800      0.94801167
       7971.7700      0.94897194
       7973.7600      0.93169003
       7975.7500      0.92352175
       7977.7400      0.91883487
       7979.7300      0.90751513
       7981.7200      0.91106933
       7983.7100      0.89202274
       7985.7000      0.90392452
       7987.6900      0.90705162
       7989.6800      0.90839655
       7991.6700      0.88127530
       7993.6600      0.86349655
       7995.6500      0.87461122
       7997.6400      0.87983218
       7999.6300      0.87314945
       8001.6200      0.88459885
       8003.6100      0.86951364
       8005.6000      0.86055207
       8007.5900      0.85191808
       8009.5800      0.85404890
       8011.5700      0.87238109
       8013.5600      0.86577918
       8015.5500      0.84221672
       8017.5400      0.83784444
       8019.5300      0.84347794
       8021.5200      0.82616032
       8023.5100      0.83604292
       8025.5000      0.82535602
       8027.4900      0.80957357
       8029.4800      0.82501704
       8031.4700      0.83060190
       8033.4600      0.80660147
       8035.4500      0.79625247
       8037.4400      0.80389410
       8039.4300      0.82977466
       8041.4200      0.81221910
       8043.4100      0.78137044
       8045.4000      0.77935978
       8047.3900      0.78518332
       8049.3800      0.77743401
       8051.3700      0.76190818
       8053.3600      0.77336069
       8055.3500      0.78036711
       8057.3400      0.76132590
       8059.3300      0.75327789
       8061.3200      0.75115137
       8063.3100      0.73451263
       8065.3000      0.73347374
       8067.2900      0.73665288
       8069.2800      0.72678529
       8071.2700      0.73390273
       8073.2600      0.74584247
       8075.2500      0.73197538
       8077.2400      0.72153653
       8079.2300      0.70829125
       8081.2200      0.71198119
       8083.2100      0.72295246
       8085.2000      0.70683076
       8087.1900      0.68256483
       8089.1800      0.67737702
       8091.1700      0.67099431
       8093.1600      0.65681022
       8095.1499      0.64486515
       8097.1400      0.63573745
       8099.1300      0.64059340
       8101.1200      0.64391658
       8103.1100      0.62450170
       8105.1000      0.62199639
       8107.0900      0.63835252
       8109.0800      0.62411872
       8111.0700      0.62308859
       8113.0600      0.62187178
       8115.0500      0.61762205
       8117.0400      0.62617828
       8119.0300      0.62860355
       8121.0200      0.62119259
       8123.0100      0.60199187
       8125.0000      0.62215121
       8126.9900      0.62535867
       8128.9800      0.62032901
       8130.9700      0.63090017
       8132.9600      0.60740219
       8134.9500      0.60510136
       8136.9400      0.60280054
       8138.9300      0.60049972
       8140.9200      0.60049972
       8142.9100      0.60110025
       8144.9000      0.60204585
       8146.8900      0.62307325
       8148.8800      0.60446912
       8150.8700      0.61320527
       8152.8600      0.62383310
       8154.8500      0.60624927
       8156.8400      0.61581845
       8158.8300      0.62148720
       8160.8200      0.62219864
       8162.8100      0.61404628
       8164.8000      0.61615534
       8166.7900      0.61767089
       8168.7800      0.59831357
       8170.7700      0.61665061
       8172.7600      0.61641567
       8174.7500      0.59945385
       8176.7400      0.58231396
       8178.7300      0.57459250
       8180.7200      0.58477346
       8182.7100      0.55969113
       8184.7000      0.53232086
       8186.6900      0.51793981
       8188.6800      0.49836774
       8190.6700      0.48883807
       8192.6600      0.46702168
       8194.6500      0.46612265
       8196.6400      0.44187147
       8198.6300      0.41385082
       8200.6200      0.39966727
       8202.6100      0.39017304
       8204.6000      0.36402310
       8206.5900      0.35181679
       8208.5800      0.34769333
       8210.5700      0.31981600
       8212.5600      0.30005933
       8214.5500      0.30010736
       8216.5400      0.28046261
       8218.5300      0.26051010
       8220.5200      0.26335962
       8222.5100      0.25204652
       8224.5000      0.22762693
       8226.4900      0.22135217
       8228.4800      0.22262800
       8230.4700      0.20990692
       8232.4600      0.20944831
       8234.4500      0.21220424
       8236.4400      0.21233058
       8238.4300      0.20842839
       8240.4200      0.19369631
       8242.4100      0.19014026
       8244.4000      0.19395056
       8246.3900      0.19669702
       8248.3800      0.19125493
       8250.3700      0.17520439
       8252.3600      0.17518893
       8254.3500      0.17611842
       8256.3400      0.17152944
       8258.3300      0.16404747
       8260.3200      0.16531937
       8262.3100      0.16338662
       8264.3000      0.15543281
       8266.2900      0.16818033
       8268.2800      0.16767643
       8270.2700      0.16592045
       8272.2600      0.15380293
       8274.2500      0.14497420
       8276.2400      0.14864932
       8278.2300      0.14401928
       8280.2200      0.14247632
       8282.2100      0.14938588
       8284.2000      0.14029890
       8286.1900      0.13523555
       8288.1800      0.15222058
       8290.1700      0.15855825
       8292.1600      0.15410241
       8294.1500      0.14510903
       8296.1400      0.13785399
       8298.1300      0.15364561
       8300.1200      0.16203091
       8302.1100      0.14657911
       8304.1000      0.13805862
       8306.0900      0.14884443
       8308.0800      0.15404566
       8310.0700      0.16185281
       8312.0600      0.15669437
       8314.0500      0.15320071
       8316.0400      0.15483214
       8318.0300      0.16109485
       8320.0200      0.16936673
       8322.0100      0.16375864
       8324.0000      0.17074530
       8325.9900      0.17578520
       8327.9800      0.17045738
       8329.9700      0.16367645
       8331.9600      0.17162871
       8333.9500      0.17950214
       8335.9400      0.17546753
       8337.9300      0.18169492
       8339.9200      0.19286965
       8341.9100      0.18470043
       8343.9000      0.17946334
       8345.8900      0.15589362
       8347.8800      0.16344902
       8349.8700      0.16740753
       8351.8600      0.18215390
       8353.8500      0.18603662
       8355.8400      0.17338516
       8357.8300      0.17720654
       8359.8200      0.18113937
       8361.8100      0.17397735
       8363.8000      0.16719182
       8365.7900      0.17344672
       8367.7800      0.17926096
       8369.7700      0.17574732
       8371.7600      0.17591012
       8373.7500      0.18378056
       8375.7400      0.18828409
       8377.7300      0.18648741
       8379.7200      0.18885353
       8381.7100      0.18896138
       8383.7000      0.18984315
       8385.6900      0.19470068
       8387.6800      0.19136977
       8389.6700      0.18489706
       8391.6600      0.20230558
       8393.6500      0.20177388
       8395.6400      0.20797252
       8397.6300      0.21710522
       8399.6200      0.22160501
       8401.6100      0.20877796
       8403.6000      0.19204635
       8405.5900      0.20681359
       8407.5800      0.21846685
       8409.5700      0.21520491
       8411.5600      0.21663143
       8413.5500      0.22778353
       8415.5400      0.22754601
       8417.5300      0.21796150
       8419.5200      0.22763427
       8421.5100      0.24568217
       8423.5000      0.24206491
       8425.4900      0.24241231
       8427.4800      0.26545562
       8429.4700      0.26779591
       8431.4600      0.24680400
       8433.4500      0.24454949
       8435.4400      0.25257597
       8437.4300      0.26769780
       8439.4200      0.27819399
       8441.4100      0.28457149
       8443.4000      0.29984992
       8445.3900      0.29925618
       8447.3800      0.30057646
       8449.3700      0.31058036
       8451.3600      0.32287138
       8453.3500      0.32652904
       8455.3400      0.33106300
       8457.3300      0.33331314
       8459.3200      0.33869436
       8461.3100      0.37008577
       8463.3000      0.37208849
       8465.2900      0.40353380
       8467.2800      0.40801027
       8469.2700      0.40411360
       8471.2600      0.42910427
       8473.2500      0.44288451
       8475.2400      0.44287851
       8477.2300      0.45644922
       8479.2200      0.46465333
       8481.2100      0.47717359
       8483.2000      0.49619265
       8485.1900      0.50025450
       8487.1800      0.51898388
       8489.1700      0.52051846
       8491.1600      0.55211634
       8493.1500      0.56249758
       8495.1400      0.55437485
       8497.1300      0.57503845
       8499.1200      0.60962021
       8501.1100      0.61130045
       8503.1000      0.60206995
       8505.0900      0.62612756
       8507.0800      0.65058524
       8509.0700      0.67342868
       8511.0600      0.69336112
       8513.0500      0.70046334
       8515.0400      0.72810664
       8517.0300      0.74780691
       8519.0200      0.75376385
       8521.0100      0.78880404
       8523.0000      0.82572304
       8524.9900      0.83672598
       8526.9800      0.83307366
       8528.9700      0.85598532
       8530.9600      0.88939365
       8532.9500      0.89477915
       8534.9400      0.90330593
       8536.9300      0.94267057
       8538.9200      0.98224898
       8540.9100      0.99055027
       8542.9000      0.98428188
       8544.8900       1.0326425
       8546.8800       1.0539805
       8548.8700       1.0735406
       8550.8600       1.1183745
       8552.8500       1.1516833
       8554.8400       1.1800352
       8556.8300       1.2148774
       8558.8200       1.2649960
       8560.8100       1.2877765
       8562.8000       1.3405947
       8564.7900       1.3722875
       8566.7800       1.4068689
       8568.7700       1.4409614
       8570.7600       1.4770783
       8572.7500       1.4696663
       8574.7400       1.4640115
       8576.7300       1.5199054
       8578.7200       1.5751958
       8580.7100       1.6022751
       8582.7000       1.6331621
       8584.6900       1.6619814
       8586.6800       1.6712682
       8588.6700       1.6686294
       8590.6600       1.7004802
       8592.6500       1.7338823
       8594.6400       1.7470057
       8596.6300       1.7894456
       8598.6200       1.8361374
       8600.6100       1.8651861
       8602.6000       1.8951768
       8604.5900       1.9467860
       8606.5800       1.9807873
       8608.5700       2.0181610
       8610.5600       2.0061826
       8612.5500       2.0254062
       8614.5400       2.0724522
       8616.5300       2.1094885
       8618.5200       2.1264191
       8620.5100       2.1515776
       8622.5000       2.1910260
       8624.4900       2.1955170
       8626.4800       2.1642130
       8628.4700       2.2032809
       8630.4600       2.2031411
       8632.4500       2.2133142
       8634.4400       2.2526662
       8636.4300       2.2504736
       8638.4200       2.1996016
       8640.4100       2.2289514
       8642.4000       2.2819537
       8644.3900       2.2629286
       8646.3800       2.2673325
       8648.3700       2.3029276
       8650.3600       2.3042993
       8652.3500       2.3175315
       8654.3400       2.3425266
       8656.3300       2.3659939
       8658.3200       2.3572798
       8660.3100       2.3139893
       8662.3000       2.3498492
       8664.2900       2.3747769
       8666.2800       2.3795865
       8668.2700       2.4101925
       8670.2600       2.3811184
       8672.2500       2.3551018
       8674.2400       2.3859143
       8676.2300       2.3867889
       8678.2200       2.3312524
       8680.2100       2.3291445
       8682.2000       2.3767895
       8684.1900       2.3607345
       8686.1800       2.3168135
       8688.1700       2.3077971
       8690.1600       2.2902724
       8692.1500       2.2917971
       8694.1399       2.2910877
       8696.1300       2.2987286
       8698.1200       2.2997748
       8700.1100       2.2966038
       8702.1000       2.2750451
       8704.0900       2.2617879
       8706.0800       2.2334864
       8708.0700       2.2020863
       8710.0600       2.1807840
       8712.0500       2.1886049
       8714.0400       2.1820979
       8716.0300       2.1707799
       8718.0200       2.1616439
       8720.0100       2.1360719
       8722.0000       2.1127258
       8723.9900       2.1362719
       8725.9800       2.0973315
       8727.9700       2.0888336
       8729.9600       2.1262552
       8731.9500       2.1095191
       8733.9400       2.0919853
       8735.9300       2.1236515
       8737.9200       2.1123705
       8739.9100       2.0850095
       8741.9000       2.1107231
       8743.8900       2.1204414
       8745.8800       2.1034472
       8747.8700       2.1221456
       8749.8600       2.1334841
       8751.8500       2.1332714
       8753.8400       2.1449566
       8755.8300       2.1203664
       8757.8200       2.0864022
       8759.8100       2.0787786
       8761.8000       2.0811189
       8763.7900       2.0603357
       8765.7800       2.0094965
       8767.7700       1.9967111
       8769.7600       1.9955518
       8771.7500       1.9743285
       8773.7400       1.9659508
       8775.7300       1.9509162
       8777.7200       1.9504529
       8779.7100       1.9636919
       8781.7000       1.9316105
       8783.6900       1.9074707
       8785.6800       1.9284424
       8787.6700       1.9184422
       8789.6600       1.8837126
       8791.6500       1.8853917
       8793.6400       1.8876321
       8795.6300       1.8875837
       8797.6200       1.8435831
       8799.6100       1.8212538
       8801.6000       1.7976304
       8803.5900       1.7731520
       8805.5800       1.7502742
       8807.5700       1.7034646
       8809.5600       1.6740348
       8811.5500       1.6562812
       8813.5400       1.6383603
       8815.5300       1.6146555
       8817.5200       1.6286351
       8819.5100       1.6174620
       8821.5000       1.6182073
       8823.4900       1.6348687
       8825.4800       1.6106647
       8827.4700       1.5535916
       8829.4600       1.5087661
       8831.4500       1.5281058
       8833.4400       1.5285202
       8835.4300       1.4925501
       8837.4200       1.4784583
       8839.4100       1.4546105
       8841.4000       1.4067992
       8843.3900       1.3938577
       8845.3800       1.4094127
       8847.3700       1.3591631
       8849.3600       1.3153776
       8851.3500       1.3000508
       8853.3400       1.2587348
       8855.3300       1.2710348
       8857.3200       1.2826079
       8859.3100       1.2456817
       8861.3000       1.2299301
       8863.2900       1.2341658
       8865.2800       1.1942770
       8867.2700       1.1716920
       8869.2600       1.1672820
       8871.2500       1.1698822
       8873.2400       1.1393005
       8875.2300       1.0812929
       8877.2200       1.0614714
       8879.2100       1.0614797
       8881.2000       1.0484111
       8883.1900       1.0553487
       8885.1800       1.0362728
       8887.1700       1.0243581
       8889.1600      0.99893894
       8891.1500      0.94971207
       8893.1400      0.92974050
       8895.1300      0.91087317
       8897.1200      0.88315225
       8899.1100      0.87973813
       8901.1000      0.87468473
       8903.0900      0.86998038
       8905.0800      0.82183905
       8907.0700      0.78293334
       8909.0600      0.79547130
       8911.0500      0.80423633
       8913.0400      0.79614359
       8915.0300      0.78690997
       8917.0200      0.77149377
       8919.0100      0.74832201
       8921.0000      0.72048856
       8922.9900      0.68287638
       8924.9800      0.66742760
       8926.9700      0.66734947
       8928.9600      0.65176716
       8930.9500      0.65160407
       8932.9400      0.64330501
       8934.9300      0.61951077
       8936.9200      0.61594402
       8938.9100      0.61868777
       8940.9000      0.59955313
       8942.8900      0.61447852
       8944.8800      0.64186675
       8946.8700      0.59356781
       8948.8600      0.56539938
       8950.8500      0.60261786
       8952.8400      0.64354306
       8954.8300      0.62742609
       8956.8200      0.61567042
       8958.8100      0.58772337
       8960.8000      0.56159405
       8962.7900      0.55003925
       8964.7800      0.53077973
       8966.7700      0.57257797
       8968.7600      0.59441939
       8970.7500      0.56490689
       8972.7400      0.53856834
       8974.7300      0.56499489
       8976.7200      0.57357787
       8978.7100      0.55182756
       8980.7000      0.56710528
       8982.6900      0.58156087
       8984.6800      0.59084902
       8986.6700      0.60002000
       8988.6600      0.60518619
       8990.6500      0.64303492
       8992.6400      0.62321508
       8994.6300      0.61759860
       8996.6200      0.65627962
       8998.6100      0.68922017
       9000.6000      0.66086996
       9002.5900      0.65439998
       9004.5800      0.69175375
       9006.5700      0.69730148
       9008.5600      0.72252070
       9010.5500      0.78446563
       9012.5400      0.79055048
       9014.5300      0.76595712
       9016.5200      0.79882978
       9018.5100      0.83367627
       9020.5000      0.81403558
       9022.4900      0.80084123
       9024.4800      0.81864130
       9026.4700      0.84444164
       9028.4600      0.86322361
       9030.4500      0.84625487
       9032.4400      0.85433191
       9034.4300      0.89245241
       9036.4200      0.87566038
       9038.4100      0.87746252
       9040.4000      0.88995684
       9042.3900      0.86517040
       9044.3800      0.89464971
       9046.3700      0.91492898
       9048.3600      0.90811702
       9050.3500      0.91787958
       9052.3400      0.92503242
       9054.3300      0.93897042
       9056.3200      0.95296234
       9058.3100      0.93779104
       9060.3000      0.92971112
       9062.2900      0.98172049
       9064.2800      0.97377298
       9066.2700      0.94291534
       9068.2600      0.93511398
       9070.2500      0.94371669
       9072.2400       1.0094019
       9074.2300      0.98629395
       9076.2200      0.99803308
       9078.2100      0.99145052
       9080.2000      0.94939467
       9082.1900      0.94241680
       9084.1800      0.94882352
       9086.1700      0.97555839
       9088.1600      0.93885208
       9090.1500      0.92834024
       9092.1400      0.91946905
       9094.1300      0.89279780
       9096.1200      0.90535522
       9098.1100      0.92197935
       9100.1000      0.91894482
       9102.0900      0.88485317
       9104.0800      0.84214882
       9106.0700      0.83075224
       9108.0600      0.90123580
       9110.0500      0.91716958
       9112.0400      0.87080391
       9114.0300      0.86509652
       9116.0200      0.89361155
       9118.0100      0.87817546
       9120.0000      0.85525521
       9121.9900      0.86996171
       9123.9800      0.86461889
       9125.9700      0.85733028
       9127.9600      0.88774600
       9129.9500      0.89700147
       9131.9400      0.86990890
       9133.9300      0.88555983
       9135.9200      0.88837125
       9137.9100      0.86234593
       9139.9000      0.85165090
       9141.8900      0.83879929
       9143.8800      0.83429803
       9145.8700      0.82136880
       9147.8600      0.84208881
       9149.8500      0.86729355
       9151.8400      0.82865230
       9153.8300      0.80615400
       9155.8200      0.84931529
       9157.8100      0.88359692
       9159.8000      0.91370799
       9161.7900      0.95946069
       9163.7800      0.97635007
       9165.7700      0.94138596
       9167.7600      0.89608135
       9169.7500      0.91488294
       9171.7400      0.96327188
       9173.7300      0.95935790
       9175.7200      0.99348644
       9177.7100       1.0373999
       9179.7000       1.0123323
       9181.6900       1.0391863
       9183.6800       1.0145342
       9185.6700       1.0081287
       9187.6600       1.0095423
       9189.6500      0.99664141
       9191.6400       1.0224671
       9193.6300       1.0173977
       9195.6200       1.0314115
       9197.6100       1.0129601
       9199.6000       1.0473203
       9201.5900       1.0775670
       9203.5800       1.0683156
       9205.5700       1.0442751
       9207.5600       1.0967241
       9209.5500       1.1307874
       9211.5400       1.0682477
       9213.5300       1.0079233
       9215.5200       1.0201363
       9217.5100       1.0986825
       9219.5000       1.1272187
       9221.4900       1.1090145
       9223.4800       1.0627946
       9225.4700       1.0661246
       9227.4600       1.0803098
       9229.4500       1.0768841
       9231.4400       1.0866185
       9233.4300       1.0784483
       9235.4200       1.0763336
       9237.4100       1.0912109
       9239.4000       1.0889722
       9241.3900       1.0764405
       9243.3800       1.0642784
       9245.3700       1.0180302
       9247.3600       1.0068959
       9249.3500       1.0303181
       9251.3400       1.0126467
       9253.3300       1.0062199
       9255.3200      0.98127460
       9257.3100      0.90487314
       9259.3000      0.86882169
       9261.2900      0.90476044
       9263.2800      0.89729100
       9265.2700      0.86568644
       9267.2600      0.84742576
       9269.2500      0.84615644
       9271.2400      0.80940523
       9273.2300      0.81904722
       9275.2200      0.87003576
       9277.2100      0.82577580
       9279.2000      0.80908169
       9281.1900      0.87121727
       9283.1800      0.87864058
       9285.1700      0.81376042
       9287.1600      0.83573366
       9289.1500      0.86242021
       9291.1400      0.83955759
       9293.1301      0.85776983
       9295.1200      0.92922424
       9297.1100      0.88924633
       9299.1000      0.86272152
       9301.0900      0.82559788
       9303.0800      0.85721373
       9305.0700      0.87161435
       9307.0600      0.83142162
       9309.0500      0.90001135
       9311.0400      0.86285102
       9313.0300      0.81646416
       9315.0200      0.81348018
       9317.0100      0.84072600
       9319.0000      0.87319940
       9320.9900      0.86987382
       9322.9800      0.79954320
       9324.9700      0.86929887
       9326.9600      0.98514385
       9328.9500      0.98185859
       9330.9400      0.94918291
       9332.9300      0.90442365
       9334.9200      0.88558036
       9336.9100      0.94599525
       9338.9000      0.90215168
       9340.8900      0.79493742
       9342.8800      0.79393908
       9344.8700      0.93136780
       9346.8600      0.99783201
       9348.8500       1.0523122
       9350.8400       1.0773538
       9352.8300       1.0201947
       9354.8200      0.95070175
       9356.8100      0.94152131
       9358.8000       1.0315730
       9360.7900       1.0852532
       9362.7800       1.0063529
       9364.7700      0.93028532
       9366.7600      0.87843743
       9368.7500      0.87951468
       9370.7400       1.0127856
       9372.7300       1.0433197
       9374.7200       1.0133323
       9376.7100       1.1032303
       9378.7000       1.0291120
       9380.6900      0.93378796
       9382.6800       1.0190684
       9384.6700       1.0552691
       9386.6600       1.0636327
       9388.6500       1.0236076
       9390.6400      0.96385771
       9392.6300      0.99928765
       9394.6200      0.99560487
       9396.6100       1.0162890
       9398.6000       1.0367233
       9400.5900       1.0013078
       9402.5800      0.95968116
       9404.5700      0.92626508
       9406.5600      0.96326832
       9408.5500       1.0241383
       9410.5400       1.0074613
       9412.5300      0.97843827
       9414.5200       1.0933947
       9416.5100       1.0904030
       9418.5000       1.0167117
       9420.4900       1.0386832
       9422.4800      0.96631905
       9424.4700      0.90330152
       9426.4600      0.96271732
       9428.4500      0.93702130
       9430.4400      0.90383800
       9432.4300      0.99856387
       9434.4200       1.0687083
       9436.4100       1.0405799
       9438.4000      0.97000863
       9440.3900      0.91974093
       9442.3800      0.89912370
