Units are: observed wavelength (Ang), observed flux (10^-15 erg/s/cm^2/Ang)
       3477.0000     -0.22855240
       3478.4700     -0.18907790
       3479.9400       1.1034860
       3481.4100       2.3852780
       3482.8800     -0.16739390
       3484.3500     -0.16708200
       3485.8200     -0.35848760
       3487.2900     -0.28948980
       3488.7600      0.19479080
       3490.2300      0.14976420
       3491.7000     -0.12508170
       3493.1700    -0.025713950
       3494.6400    -0.014158710
       3496.1100      0.16273080
       3497.5800      0.74132700
       3499.0500      0.50675050
       3500.5200     -0.30837740
       3501.9900    -0.075794490
       3503.4600      0.15906330
       3504.9300      0.39963930
       3506.4000      0.43439080
       3507.8700    -0.017787570
       3509.3400     0.029403320
       3510.8100     0.061160880
       3512.2800    -0.026276610
       3513.7500     0.082909910
       3515.2200     0.072653660
       3516.6900     -0.12503370
       3518.1600     -0.15161270
       3519.6300    -0.086577750
       3521.1000     -0.11785580
       3522.5700      0.10393870
       3524.0400      0.96029110
       3525.5100       1.7256000
       3526.9800      0.86874670
       3528.4500      0.20382340
       3529.9200      0.73628750
       3531.3900      0.24417590
       3532.8600      0.40307920
       3534.3300    0.0071663130
       3535.8000     0.024646890
       3537.2700     0.036597970
       3538.7400     -0.27036960
       3540.2100     -0.50338680
       3541.6800     0.070431610
       3543.1500     0.082690480
       3544.6200    -0.075620530
       3546.0900     -0.10970730
       3547.5600     -0.13420980
       3549.0300     0.019334210
       3550.5000      0.16278720
       3551.9700      0.17481660
       3553.4400     -0.21738570
       3554.9100     -0.12697020
       3556.3800      0.15911950
       3557.8500    0.0017751420
       3559.3200    -0.034329770
       3560.7900     -0.47755450
       3562.2600     -0.39160140
       3563.7300     0.041375420
       3565.1999  -0.00036185650
       3566.6700   -0.0060894990
       3568.1400     -0.13567100
       3569.6100    -0.093799260
       3571.0800     -0.19377050
       3572.5500     -0.16167250
       3574.0200    -0.031251530
       3575.4900   -0.0089808160
       3576.9600     -0.12543900
       3578.4300     -0.16437520
       3579.9000    -0.056357570
       3581.3700   -0.0022159130
       3582.8400    -0.058719650
       3584.3100    -0.020830040
       3585.7800    0.0013054270
       3587.2500      0.13186680
       3588.7200      0.32790620
       3590.1900      0.20749590
       3591.6600    -0.053830940
       3593.1300     0.068906760
       3594.6000      0.19345020
       3596.0700    0.0025643160
       3597.5400    -0.045780770
       3599.0100     0.023821520
       3600.4800    -0.037513240
       3601.9500     -0.14782820
       3603.4200      0.12923640
       3604.8900      0.67936340
       3606.3600      0.27690740
       3607.8300      0.22867350
       3609.3000    -0.054995600
       3610.7700     0.049659200
       3612.2400     0.043200460
       3613.7100      0.11625600
       3615.1800      0.29646110
       3616.6500    -0.090983980
       3618.1200    -0.045330650
       3619.5900      0.19193910
       3621.0600   -0.0058249560
       3622.5300      0.13934030
       3624.0000     -0.15351050
       3625.4700     0.078708020
       3626.9400      0.51555720
       3628.4100      0.14711180
       3629.8800     0.038810040
       3631.3500    -0.053108690
       3632.8200      0.13300850
       3634.2900       1.1008990
       3635.7600       1.0073070
       3637.2300     -0.39762540
       3638.7000      0.18560740
       3640.1700      0.16676940
       3641.6400     -0.15316530
       3643.1100    -0.080228220
       3644.5800      0.12337790
       3646.0500   -0.0075551390
       3647.5200      0.11846450
       3648.9900     0.096731460
       3650.4600     -0.10993350
       3651.9300     0.044297430
       3653.4000     0.067872580
       3654.8700    -0.056691250
       3656.3400   -0.0036465430
       3657.8100     0.049841050
       3659.2800      0.16326320
       3660.7500      0.16357220
       3662.2200      0.25735600
       3663.6900      0.12455410
       3665.1600    0.0089432120
       3666.6300      0.11351100
       3668.1000      0.22099880
       3669.5700      0.27953120
       3671.0400      0.19808420
       3672.5100      0.22602470
       3673.9800      0.31799360
       3675.4500      0.20590880
       3676.9200      0.28796910
       3678.3900      0.24836220
       3679.8600      0.33171050
       3681.3300      0.39850180
       3682.8000      0.21652170
       3684.2700      0.13763710
       3685.7400      0.13194480
       3687.2100      0.14234420
       3688.6800      0.21380630
       3690.1500      0.33993240
       3691.6200      0.18505610
       3693.0900     0.093366820
       3694.5600      0.15386280
       3696.0300      0.15013630
       3697.5000      0.16214450
       3698.9700     0.092014000
       3700.4400      0.46110380
       3701.9100      0.54039890
       3703.3800    -0.074137540
       3704.8500      0.38528640
       3706.3200      0.34077190
       3707.7900    -0.095796420
       3709.2600      0.16961420
       3710.7300      0.14256810
       3712.2000      0.16041970
       3713.6700      0.10618370
       3715.1400    -0.014313280
       3716.6100      0.37132540
       3718.0800      0.43477900
       3719.5500      0.11470190
       3721.0200      0.19355370
       3722.4900      0.26195500
       3723.9600      0.13711960
       3725.4300    -0.010816400
       3726.9000     0.052458180
       3728.3700      0.13520780
       3729.8400      0.53232150
       3731.3100      0.26879980
       3732.7800     0.097175850
       3734.2500      0.19019490
       3735.7200      0.16656840
       3737.1900      0.12042060
       3738.6600   -0.0023186590
       3740.1300     -0.20363590
       3741.6000     -0.19637660
       3743.0700     -0.10162070
       3744.5400      0.28571210
       3746.0100      0.40591420
       3747.4800      0.51191550
       3748.9500     0.093546590
       3750.4200     0.015567490
       3751.8900      0.29934450
       3753.3600      0.17676300
       3754.8300      0.43085650
       3756.3000      0.37747960
       3757.7700      0.11208250
       3759.2400      0.26592630
       3760.7100      0.40031520
       3762.1800      0.11821160
       3763.6500      0.29201200
       3765.1200      0.17251430
       3766.5900     0.092856730
       3768.0600      0.30110500
       3769.5300      0.28865940
       3771.0000      0.21481030
       3772.4700      0.27751500
       3773.9400      0.13685670
       3775.4100      0.28753150
       3776.8800      0.16069640
       3778.3500      0.12152550
       3779.8200      0.20480780
       3781.2900      0.21462800
       3782.7600      0.28000670
       3784.2300     0.080701320
       3785.7000     0.036333690
       3787.1700     0.062620040
       3788.6400    -0.062730700
       3790.1100     0.036792480
       3791.5800      0.11725300
       3793.0500      0.12487810
       3794.5200     0.071664230
       3795.9900     -0.13763570
       3797.4600   -0.0062421280
       3798.9300      0.36265190
       3800.4000      0.34678170
       3801.8700      0.10795180
       3803.3400      0.18575010
       3804.8100     0.067430880
       3806.2800     0.035444120
       3807.7500      0.11346920
       3809.2200      0.15448690
       3810.6900     0.061629350
       3812.1600   -0.0062505540
       3813.6300     0.029776520
       3815.1000     0.060334520
       3816.5700     0.043185550
       3818.0400     0.044395690
       3819.5100     0.024835660
       3820.9800    -0.062684070
       3822.4500     0.023728580
       3823.9200      0.10704160
       3825.3900     0.084046710
       3826.8600     0.089905870
       3828.3300     0.083992330
       3829.8000      0.21908020
       3831.2700      0.14563670
       3832.7400      0.17009670
       3834.2100      0.12530150
       3835.6800      0.24836130
       3837.1500     0.030489990
       3838.6200    -0.026796010
       3840.0900   -0.0051375220
       3841.5600     0.055088550
       3843.0300      0.12227170
       3844.5000     0.043284360
       3845.9700      0.13300220
       3847.4400      0.11475050
       3848.9100      0.19866350
       3850.3800     0.030831400
       3851.8500     0.064677230
       3853.3200      0.16757980
       3854.7900      0.20048660
       3856.2600      0.24301300
       3857.7300      0.12513840
       3859.2000      0.23258370
       3860.6700      0.17218700
       3862.1400      0.11333860
       3863.6100    0.0017748150
       3865.0800    0.0074858440
       3866.5500     0.093589240
       3868.0200      0.15764230
       3869.4900     0.044455430
       3870.9600     0.089692380
       3872.4300    -0.012016730
       3873.9000      0.13378630
       3875.3700      0.27029240
       3876.8400      0.19866160
       3878.3099      0.17601860
       3879.7800      0.28090180
       3881.2500      0.25797940
       3882.7200      0.18273530
       3884.1900      0.26073830
       3885.6600      0.22051400
       3887.1300      0.24578910
       3888.6000      0.18092110
       3890.0700      0.12377810
       3891.5400      0.11738870
       3893.0100      0.21157790
       3894.4800      0.22815740
       3895.9500      0.13005070
       3897.4200      0.22223270
       3898.8900      0.22793440
       3900.3600      0.36316690
       3901.8300      0.35647540
       3903.3000      0.20731750
       3904.7700      0.36725910
       3906.2400      0.38834590
       3907.7100      0.34013900
       3909.1800      0.31086440
       3910.6500      0.29790380
       3912.1200      0.20797760
       3913.5900      0.29158820
       3915.0600      0.51839000
       3916.5300      0.28771740
       3918.0000      0.26053960
       3919.4700      0.38366900
       3920.9400      0.29071670
       3922.4100      0.34012180
       3923.8800      0.34569410
       3925.3500      0.35436170
       3926.8200      0.40184270
       3928.2900      0.27309420
       3929.7600      0.23898420
       3931.2300      0.26474700
       3932.7000      0.27890910
       3934.1700      0.20615840
       3935.6400      0.29196120
       3937.1100      0.34311180
       3938.5800      0.30970810
       3940.0500      0.31166410
       3941.5200      0.26031040
       3942.9900      0.31680990
       3944.4600      0.29541970
       3945.9300      0.27370500
       3947.4000      0.37636050
       3948.8700      0.37749110
       3950.3400      0.30685220
       3951.8100      0.38620230
       3953.2800      0.25422170
       3954.7500      0.46325140
       3956.2200      0.33249810
       3957.6900      0.36817430
       3959.1600      0.41369560
       3960.6300      0.34423810
       3962.1000      0.54566960
       3963.5700      0.46436980
       3965.0400      0.43283710
       3966.5100      0.54720530
       3967.9800      0.29073840
       3969.4500      0.35818940
       3970.9200      0.52464320
       3972.3900      0.62593220
       3973.8600      0.57458410
       3975.3300      0.48569870
       3976.8000      0.29758580
       3978.2700      0.31260960
       3979.7400      0.38312420
       3981.2100      0.48196180
       3982.6800      0.50682460
       3984.1500      0.32946300
       3985.6200      0.34631930
       3987.0900      0.33175610
       3988.5600      0.38310300
       3990.0300      0.59427300
       3991.5000      0.57758160
       3992.9700      0.45946710
       3994.4400      0.39721390
       3995.9100      0.35128610
       3997.3800      0.30751220
       3998.8500      0.36010750
       4000.3200      0.38681640
       4001.7900      0.38466820
       4003.2600      0.30820890
       4004.7300      0.26258110
       4006.2000      0.42448200
       4007.6700      0.37768880
       4009.1400      0.51405360
       4010.6100      0.61771120
       4012.0800      0.39809160
       4013.5500      0.30109410
       4015.0200      0.45813290
       4016.4900      0.60699160
       4017.9600      0.44009630
       4019.4300      0.46484050
       4020.9000      0.73021600
       4022.3700      0.65088060
       4023.8400      0.41830210
       4025.3100      0.44749430
       4026.7800      0.48739910
       4028.2500      0.39598750
       4029.7200      0.35666000
       4031.1900      0.31093310
       4032.6600      0.31349160
       4034.1300      0.30411260
       4035.6000      0.39161280
       4037.0700      0.54490690
       4038.5400      0.49007390
       4040.0100      0.34757190
       4041.4800      0.47568960
       4042.9500      0.58277260
       4044.4200      0.41334800
       4045.8900      0.48733590
       4047.3600      0.57436110
       4048.8300      0.41960880
       4050.3000      0.34111800
       4051.7700      0.44899600
       4053.2400      0.36212940
       4054.7100      0.37650150
       4056.1800      0.49011480
       4057.6500      0.35745310
       4059.1200      0.40828890
       4060.5900      0.60539830
       4062.0600      0.70134620
       4063.5300      0.43282770
       4065.0000      0.40303810
       4066.4700      0.40371430
       4067.9400      0.38217220
       4069.4100      0.32250700
       4070.8800      0.39267110
       4072.3500      0.49114220
       4073.8200      0.45218540
       4075.2900      0.29557670
       4076.7600      0.22357900
       4078.2300      0.30952670
       4079.7000      0.38943950
       4081.1700      0.42629810
       4082.6400      0.28155370
       4084.1100      0.28590700
       4085.5800      0.32031450
       4087.0500      0.39308640
       4088.5200      0.38907040
       4089.9900      0.33374170
       4091.4600      0.35177720
       4092.9300      0.34947400
       4094.4000      0.28482420
       4095.8700      0.36948750
       4097.3400      0.45279160
       4098.8100      0.47750580
       4100.2800      0.48706210
       4101.7500      0.38609670
       4103.2200      0.34316730
       4104.6900      0.35073400
       4106.1600      0.40027870
       4107.6300      0.64191310
       4109.1000      0.56307220
       4110.5700      0.28995600
       4112.0400      0.62260390
       4113.5100      0.62006660
       4114.9800      0.36217910
       4116.4500      0.32101390
       4117.9200      0.34782920
       4119.3900      0.36903010
       4120.8600      0.27389180
       4122.3300      0.23537470
       4123.8000      0.25316150
       4125.2700      0.24164570
       4126.7400      0.27518200
       4128.2100      0.34074200
       4129.6800      0.36524260
       4131.1500      0.35896650
       4132.6200      0.32195960
       4134.0900      0.22524150
       4135.5600      0.25893280
       4137.0300      0.28605040
       4138.5000      0.23522000
       4139.9700      0.23882860
       4141.4400      0.31561930
       4142.9100      0.37712310
       4144.3800      0.32489440
       4145.8500      0.32100640
       4147.3200      0.30760040
       4148.7900      0.22250150
       4150.2600      0.21528950
       4151.7300      0.25226640
       4153.2000      0.26784240
       4154.6700      0.29174180
       4156.1400      0.27802300
       4157.6100      0.23435990
       4159.0800      0.25186080
       4160.5500      0.30294790
       4162.0200      0.33857710
       4163.4900      0.31346550
       4164.9600      0.25107830
       4166.4300      0.21312590
       4167.9000      0.18374220
       4169.3700      0.14394600
       4170.8400      0.19255520
       4172.3100      0.28438260
       4173.7800      0.23514440
       4175.2500      0.16752660
       4176.7200      0.20683970
       4178.1900      0.21882550
       4179.6600      0.23612840
       4181.1300      0.27110180
       4182.6000      0.24980500
       4184.0700      0.20729470
       4185.5400      0.21361750
       4187.0100      0.22725380
       4188.4800      0.25445310
       4189.9500      0.23373670
       4191.4199      0.20598000
       4192.8900      0.18966280
       4194.3600      0.23251730
       4195.8300      0.23302930
       4197.3000      0.24226780
       4198.7700      0.23140100
       4200.2400      0.20843440
       4201.7100      0.20142460
       4203.1800      0.15936620
       4204.6500      0.23780630
       4206.1200      0.24100740
       4207.5900      0.22737650
       4209.0600      0.23374540
       4210.5300      0.24595270
       4212.0000      0.26625700
       4213.4700      0.24656960
       4214.9400      0.24955000
       4216.4100      0.21848190
       4217.8800      0.18906270
       4219.3500      0.20807530
       4220.8200      0.19774830
       4222.2900      0.24683460
       4223.7600      0.21509510
       4225.2300      0.26163080
       4226.7000      0.24771690
       4228.1700      0.25351750
       4229.6400      0.26754570
       4231.1100      0.26183600
       4232.5800      0.22004150
       4234.0500      0.20617660
       4235.5200      0.20683370
       4236.9900      0.20551640
       4238.4600      0.20131530
       4239.9300      0.23806810
       4241.4000      0.19516900
       4242.8700      0.21070050
       4244.3400      0.26101950
       4245.8100      0.19441620
       4247.2800      0.22195540
       4248.7500      0.27469560
       4250.2200      0.20333680
       4251.6900      0.24826710
       4253.1600      0.21395980
       4254.6300      0.24195400
       4256.1000      0.24496640
       4257.5700      0.21002360
       4259.0400      0.25413960
       4260.5100      0.25975340
       4261.9800      0.24606930
       4263.4500      0.23075400
       4264.9200      0.27145710
       4266.3900      0.27419920
       4267.8600      0.24864920
       4269.3300      0.23122350
       4270.8000      0.24259100
       4272.2700      0.24138940
       4273.7400      0.25180060
       4275.2100      0.27979390
       4276.6800      0.24701640
       4278.1500      0.23717090
       4279.6200      0.24359180
       4281.0900      0.22413680
       4282.5600      0.22917680
       4284.0300      0.27368170
       4285.5000      0.23236160
       4286.9700      0.19253630
       4288.4400      0.22531240
       4289.9100      0.24473050
       4291.3800      0.22521470
       4292.8500      0.25826280
       4294.3200      0.25425230
       4295.7900      0.23868790
       4297.2600      0.21852540
       4298.7300      0.23668180
       4300.2000      0.25510470
       4301.6700      0.24707850
       4303.1400      0.25818510
       4304.6100      0.21350380
       4306.0800      0.25186440
       4307.5500      0.27971320
       4309.0200      0.22950180
       4310.4900      0.22440080
       4311.9600      0.23803900
       4313.4300      0.25284720
       4314.9000      0.22020590
       4316.3700      0.21928040
       4317.8400      0.25651120
       4319.3100      0.24768170
       4320.7800      0.24647920
       4322.2500      0.25592710
       4323.7200      0.27075390
       4325.1900      0.25608450
       4326.6600      0.21087760
       4328.1300      0.21966120
       4329.6000      0.25683450
       4331.0700      0.23217630
       4332.5400      0.23051640
       4334.0100      0.24496990
       4335.4800      0.25014110
       4336.9500      0.27189360
       4338.4200      0.25052170
       4339.8900      0.21709460
       4341.3600      0.22163670
       4342.8300      0.26425790
       4344.3000      0.26525030
       4345.7700      0.27205120
       4347.2400      0.24246960
       4348.7100      0.25330020
       4350.1800      0.25982490
       4351.6500      0.26277160
       4353.1200      0.24155890
       4354.5900      0.18575630
       4356.0600      0.21785190
       4357.5300      0.30109610
       4359.0000      0.24619260
       4360.4700      0.26314960
       4361.9400      0.26559580
       4363.4100      0.20851290
       4364.8800      0.20751060
       4366.3500      0.22577430
       4367.8200      0.26141630
       4369.2900      0.25225530
       4370.7600      0.24308570
       4372.2300      0.23867990
       4373.7000      0.24875340
       4375.1700      0.25516950
       4376.6400      0.29848120
       4378.1100      0.27602720
       4379.5800      0.25002820
       4381.0500      0.24985270
       4382.5200      0.27035270
       4383.9900      0.24750540
       4385.4600      0.23214310
       4386.9300      0.26176730
       4388.4000      0.25171480
       4389.8700      0.25706480
       4391.3400      0.19473340
       4392.8100      0.20162100
       4394.2800      0.25894340
       4395.7500      0.25044130
       4397.2200      0.26184700
       4398.6900      0.24005610
       4400.1600      0.25443240
       4401.6300      0.21916780
       4403.1000      0.20716830
       4404.5700      0.26562910
       4406.0400      0.23802320
       4407.5100      0.23553910
       4408.9800      0.27532510
       4410.4500      0.24050550
       4411.9200      0.22529670
       4413.3900      0.22452510
       4414.8600      0.19405550
       4416.3300      0.24308160
       4417.8000      0.24739140
       4419.2700      0.24185380
       4420.7400      0.19478890
       4422.2100      0.19253090
       4423.6800      0.24660950
       4425.1500      0.22546290
       4426.6200      0.20686550
       4428.0900      0.24669190
       4429.5600      0.23133940
       4431.0300      0.23559280
       4432.5000      0.23162830
       4433.9700      0.23006170
       4435.4400      0.22541660
       4436.9100      0.23755680
       4438.3800      0.25333520
       4439.8500      0.25009230
       4441.3200      0.24742370
       4442.7900      0.20917460
       4444.2600      0.21136680
       4445.7300      0.17383120
       4447.2000      0.22400030
       4448.6700      0.22209770
       4450.1400      0.20188430
       4451.6100      0.16615120
       4453.0800      0.22210940
       4454.5500      0.20307210
       4456.0200      0.19681320
       4457.4900      0.21893390
       4458.9600      0.21898380
       4460.4300      0.20766260
       4461.9000      0.26345070
       4463.3700      0.22398010
       4464.8400      0.21803380
       4466.3100      0.22989980
       4467.7800      0.27210340
       4469.2500      0.24524720
       4470.7200      0.23218570
       4472.1900      0.22762770
       4473.6600      0.21822830
       4475.1300      0.23739190
       4476.6000      0.23490070
       4478.0700      0.22820970
       4479.5400      0.22410270
       4481.0100      0.23284870
       4482.4800      0.22195150
       4483.9500      0.23776640
       4485.4200      0.24101450
       4486.8900      0.27098110
       4488.3600      0.29326980
       4489.8300      0.26330410
       4491.3000      0.26042040
       4492.7700      0.25956190
       4494.2400      0.28062750
       4495.7100      0.28954540
       4497.1800      0.27431020
       4498.6500      0.27633810
       4500.1200      0.29429500
       4501.5900      0.26920300
       4503.0600      0.24212920
       4504.5299      0.27179580
       4506.0000      0.28551750
       4507.4700      0.32689480
       4508.9400      0.35377030
       4510.4100      0.34818090
       4511.8800      0.33998450
       4513.3500      0.34635630
       4514.8200      0.33488970
       4516.2900      0.33143450
       4517.7600      0.33639000
       4519.2300      0.36430060
       4520.7000      0.41804900
       4522.1700      0.37589710
       4523.6400      0.37196690
       4525.1100      0.41224100
       4526.5800      0.42272580
       4528.0500      0.41846620
       4529.5200      0.40836760
       4530.9900      0.37369160
       4532.4600      0.44300760
       4533.9300      0.43729650
       4535.4000      0.38594250
       4536.8700      0.44380970
       4538.3400      0.40084710
       4539.8100      0.34654450
       4541.2800      0.37069690
       4542.7500      0.38802540
       4544.2200      0.42553560
       4545.6900      0.46875150
       4547.1600      0.48101090
       4548.6300      0.49234030
       4550.1000      0.47759140
       4551.5700      0.45340870
       4553.0400      0.45527630
       4554.5100      0.47766110
       4555.9800      0.46684830
       4557.4500      0.43479730
       4558.9200      0.45825360
       4560.3900      0.49156380
       4561.8600      0.47744670
       4563.3300      0.44683100
       4564.8000      0.45059590
       4566.2700      0.44111310
       4567.7400      0.48167740
       4569.2100      0.50119990
       4570.6800      0.48199780
       4572.1500      0.48412240
       4573.6200      0.49465380
       4575.0900      0.51169060
       4576.5600      0.50563290
       4578.0300      0.50588330
       4579.5000      0.51173700
       4580.9700      0.50090850
       4582.4400      0.50573490
       4583.9100      0.50675250
       4585.3800      0.49567630
       4586.8500      0.53219570
       4588.3200      0.50883330
       4589.7900      0.50818410
       4591.2600      0.56264220
       4592.7300      0.56776540
       4594.2000      0.54461840
       4595.6700      0.54668040
       4597.1400      0.53190150
       4598.6100      0.50330420
       4600.0800      0.50155080
       4601.5500      0.53240370
       4603.0200      0.53648720
       4604.4900      0.50629370
       4605.9600      0.52431960
       4607.4300      0.53876800
       4608.9000      0.52766940
       4610.3700      0.51019820
       4611.8400      0.50684230
       4613.3100      0.52022840
       4614.7800      0.54746530
       4616.2500      0.55745970
       4617.7200      0.52886070
       4619.1900      0.55217400
       4620.6600      0.55467520
       4622.1300      0.54742560
       4623.6000      0.53496070
       4625.0700      0.54611850
       4626.5400      0.55577650
       4628.0100      0.55433750
       4629.4800      0.57688120
       4630.9500      0.59415480
       4632.4200      0.60659470
       4633.8900      0.56633380
       4635.3600      0.54008520
       4636.8300      0.57447830
       4638.3000      0.55602040
       4639.7700      0.59092460
       4641.2400      0.60775890
       4642.7100      0.58313860
       4644.1800      0.59759390
       4645.6500      0.57058210
       4647.1200      0.55520950
       4648.5900      0.56001790
       4650.0600      0.55519300
       4651.5300      0.55114820
       4653.0000      0.53868940
       4654.4700      0.52728020
       4655.9400      0.53349610
       4657.4100      0.51797270
       4658.8800      0.54925840
       4660.3500      0.55406060
       4661.8200      0.52945480
       4663.2900      0.53934880
       4664.7600      0.54026080
       4666.2300      0.51609940
       4667.7000      0.49119660
       4669.1700      0.46987100
       4670.6400      0.48372150
       4672.1100      0.49412910
       4673.5800      0.48463390
       4675.0500      0.50309590
       4676.5200      0.49021130
       4677.9900      0.48688300
       4679.4600      0.51045120
       4680.9300      0.49876150
       4682.4000      0.48547770
       4683.8700      0.47606100
       4685.3400      0.48498960
       4686.8100      0.49804640
       4688.2800      0.47727880
       4689.7500      0.46172750
       4691.2200      0.48329210
       4692.6900      0.51790570
       4694.1600      0.48954190
       4695.6300      0.47118960
       4697.1000      0.49597670
       4698.5700      0.46923440
       4700.0400      0.42589270
       4701.5100      0.44150340
       4702.9800      0.47464280
       4704.4500      0.44235380
       4705.9200      0.44778840
       4707.3900      0.46829970
       4708.8600      0.42256840
       4710.3300      0.44970560
       4711.8000      0.47979970
       4713.2700      0.42352850
       4714.7400      0.41712450
       4716.2100      0.43065080
       4717.6800      0.42092070
       4719.1500      0.41613260
       4720.6200      0.43205980
       4722.0900      0.41427610
       4723.5600      0.39421370
       4725.0300      0.41984590
       4726.5000      0.39691890
       4727.9700      0.37062980
       4729.4400      0.39062470
       4730.9100      0.42477290
       4732.3800      0.42254120
       4733.8500      0.37097060
       4735.3200      0.36358780
       4736.7900      0.39222920
       4738.2600      0.35702400
       4739.7300      0.37540700
       4741.2000      0.42850230
       4742.6700      0.39055620
       4744.1400      0.37725310
       4745.6100      0.41703290
       4747.0800      0.43404110
       4748.5500      0.42292260
       4750.0200      0.39238010
       4751.4900      0.37198120
       4752.9600      0.38351140
       4754.4300      0.38645070
       4755.9000      0.37917290
       4757.3700      0.39588950
       4758.8400      0.37509620
       4760.3100      0.35178910
       4761.7800      0.40036650
       4763.2500      0.40882580
       4764.7200      0.34763330
       4766.1900      0.36017480
       4767.6600      0.35524320
       4769.1300      0.34649560
       4770.6000      0.38334380
       4772.0700      0.37636270
       4773.5400      0.35138540
       4775.0100      0.33892320
       4776.4800      0.33767090
       4777.9500      0.36086920
       4779.4200      0.35930040
       4780.8900      0.35363610
       4782.3600      0.31803970
       4783.8300      0.33269240
       4785.3000      0.37744620
       4786.7700      0.36833870
       4788.2400      0.35650940
       4789.7100      0.32444540
       4791.1800      0.34515870
       4792.6500      0.34380540
       4794.1200      0.30657990
       4795.5900      0.33025540
       4797.0600      0.33349110
       4798.5300      0.31157650
       4800.0000      0.31023140
       4801.4700      0.30970650
       4802.9400      0.32874970
       4804.4100      0.29594930
       4805.8800      0.28282600
       4807.3500      0.29561430
       4808.8200      0.28826960
       4810.2900      0.29464640
       4811.7600      0.32171840
       4813.2300      0.31152730
       4814.7000      0.29359880
       4816.1700      0.29561810
       4817.6399      0.29541130
       4819.1100      0.26528440
       4820.5800      0.28027660
       4822.0500      0.29996010
       4823.5200      0.27967110
       4824.9900      0.28212250
       4826.4600      0.27961420
       4827.9300      0.29652560
       4829.4000      0.30087530
       4830.8700      0.28147340
       4832.3400      0.26691760
       4833.8100      0.27242860
       4835.2800      0.26670770
       4836.7500      0.26712050
       4838.2200      0.30514930
       4839.6900      0.30677670
       4841.1600      0.30009060
       4842.6300      0.33999580
       4844.1000      0.33863880
       4845.5700      0.32328080
       4847.0400      0.29603120
       4848.5100      0.30953640
       4849.9800      0.32812860
       4851.4500      0.33245780
       4852.9200      0.31208270
       4854.3900      0.28919180
       4855.8600      0.33267870
       4857.3300      0.30179210
       4858.8000      0.25946790
       4860.2700      0.29223740
       4861.7400      0.30906830
       4863.2100      0.29843430
       4864.6800      0.33978430
       4866.1500      0.37939530
       4867.6200      0.37958570
       4869.0900      0.36939400
       4870.5600      0.34261370
       4872.0300      0.33012960
       4873.5000      0.34519090
       4874.9700      0.36208890
       4876.4400      0.37141240
       4877.9100      0.34327540
       4879.3800      0.34253020
       4880.8500      0.35513420
       4882.3200      0.35639010
       4883.7900      0.37182470
       4885.2600      0.37515680
       4886.7300      0.34970890
       4888.2000      0.33356160
       4889.6700      0.33413480
       4891.1400      0.33559170
       4892.6100      0.32964940
       4894.0800      0.34973060
       4895.5500      0.36341540
       4897.0200      0.35346120
       4898.4900      0.36169930
       4899.9600      0.36018050
       4901.4300      0.33409840
       4902.9000      0.37612650
       4904.3700      0.39250010
       4905.8400      0.34969060
       4907.3100      0.36524190
       4908.7800      0.37296020
       4910.2500      0.36668070
       4911.7200      0.33894270
       4913.1900      0.30341410
       4914.6600      0.32104680
       4916.1300      0.31335770
       4917.6000      0.30274870
       4919.0700      0.33117020
       4920.5400      0.35478200
       4922.0100      0.35448290
       4923.4800      0.33346080
       4924.9500      0.32274880
       4926.4200      0.34940200
       4927.8900      0.35851520
       4929.3600      0.33565880
       4930.8300      0.33345590
       4932.3000      0.34502040
       4933.7700      0.35878210
       4935.2400      0.33498090
       4936.7100      0.33517000
       4938.1800      0.33099990
       4939.6500      0.33460380
       4941.1200      0.34117850
       4942.5900      0.31078350
       4944.0600      0.35849460
       4945.5300      0.36050840
       4947.0000      0.33905890
       4948.4700      0.33260800
       4949.9400      0.33927440
       4951.4100      0.38524010
       4952.8800      0.37340130
       4954.3500      0.36546310
       4955.8200      0.39413690
       4957.2900      0.40340760
       4958.7600      0.36749220
       4960.2300      0.37432760
       4961.7000      0.43008570
       4963.1700      0.41337870
       4964.6400      0.41273610
       4966.1100      0.43738940
       4967.5800      0.41380660
       4969.0500      0.39483640
       4970.5200      0.40392660
       4971.9900      0.42235900
       4973.4600      0.47233670
       4974.9300      0.49985010
       4976.4000      0.43998290
       4977.8700      0.44413500
       4979.3400      0.49926430
       4980.8100      0.51106230
       4982.2800      0.50308110
       4983.7500      0.48559950
       4985.2200      0.48948570
       4986.6900      0.51535680
       4988.1600      0.50584950
       4989.6300      0.51291890
       4991.1000      0.52091250
       4992.5700      0.49956960
       4994.0400      0.49624760
       4995.5100      0.45626570
       4996.9800      0.46853350
       4998.4500      0.48542280
       4999.9200      0.48950850
       5001.3900      0.50152400
       5002.8600      0.46366350
       5004.3300      0.45295570
       5005.8000      0.47267730
       5007.2700      0.50522570
       5008.7400      0.46266110
       5010.2100      0.41982270
       5011.6800      0.44773070
       5013.1500      0.46344690
       5014.6200      0.44666520
       5016.0900      0.39489810
       5017.5600      0.39179650
       5019.0300      0.41234750
       5020.5000      0.41840150
       5021.9700      0.38990200
       5023.4400      0.38093160
       5024.9100      0.40369960
       5026.3800      0.40646330
       5027.8500      0.41905700
       5029.3200      0.42049270
       5030.7900      0.39236720
       5032.2600      0.34984490
       5033.7300      0.34239570
       5035.2000      0.34253590
       5036.6700      0.34149240
       5038.1400      0.31202380
       5039.6100      0.32355610
       5041.0800      0.32387870
       5042.5500      0.29542750
       5044.0200      0.29577620
       5045.4900      0.30112870
       5046.9600      0.30478050
       5048.4300      0.28821990
       5049.9000      0.27488430
       5051.3700      0.25203590
       5052.8400      0.27639680
       5054.3100      0.27964140
       5055.7800      0.27641790
       5057.2500      0.29169120
       5058.7200      0.26637550
       5060.1900      0.30028060
       5061.6600      0.29926270
       5063.1300      0.27398910
       5064.6000      0.24863070
       5066.0700      0.24410490
       5067.5400      0.27229200
       5069.0100      0.27939580
       5070.4800      0.27614700
       5071.9500      0.29153700
       5073.4200      0.28022630
       5074.8900      0.24473550
       5076.3600      0.23349430
       5077.8300      0.26805730
       5079.3000      0.28588660
       5080.7700      0.24346290
       5082.2400      0.26282780
       5083.7100      0.29516690
       5085.1800      0.27328880
       5086.6500      0.27328360
       5088.1200      0.27535370
       5089.5900      0.27611270
       5091.0600      0.24938650
       5092.5300      0.25287130
       5094.0000      0.29640600
       5095.4700      0.28296680
       5096.9400      0.24420050
       5098.4100      0.26280920
       5099.8800      0.28740820
       5101.3500      0.29351850
       5102.8200      0.26878960
       5104.2900      0.28318160
       5105.7600      0.31086250
       5107.2300      0.30029550
       5108.7000      0.29251700
       5110.1700      0.31212550
       5111.6400      0.29601210
       5113.1100      0.30199850
       5114.5800      0.30390320
       5116.0500      0.32171440
       5117.5200      0.32189560
       5118.9900      0.29161920
       5120.4600      0.32172830
       5121.9300      0.32924550
       5123.4000      0.31608270
       5124.8700      0.32323350
       5126.3400      0.32791270
       5127.8100      0.34502520
       5129.2800      0.36921130
       5130.7499      0.34202920
       5132.2200      0.34784190
       5133.6900      0.32557840
       5135.1600      0.36430150
       5136.6300      0.37255020
       5138.1000      0.36205200
       5139.5700      0.39151280
       5141.0400      0.40233160
       5142.5100      0.41221760
       5143.9800      0.38515250
       5145.4500      0.35989450
       5146.9200      0.37989660
       5148.3900      0.39231650
       5149.8600      0.39212410
       5151.3300      0.38044040
       5152.8000      0.40504040
       5154.2700      0.39291420
       5155.7400      0.38368070
       5157.2100      0.36980790
       5158.6800      0.36572940
       5160.1500      0.37954230
       5161.6200      0.40751900
       5163.0900      0.39194780
       5164.5600      0.39297790
       5166.0300      0.38074940
       5167.5000      0.39096000
       5168.9700      0.38156980
       5170.4400      0.40090820
       5171.9100      0.37831290
       5173.3800      0.36087860
       5174.8500      0.39762330
       5176.3200      0.40859840
       5177.7900      0.43506770
       5179.2600      0.45206650
       5180.7300      0.37482780
       5182.2000      0.35231420
       5183.6700      0.39429820
       5185.1400      0.41314780
       5186.6100      0.39562040
       5188.0800      0.39385790
       5189.5500      0.40292210
       5191.0200      0.38733000
       5192.4900      0.39297020
       5193.9600      0.42641760
       5195.4300      0.37865450
       5196.9000      0.38573730
       5198.3700      0.40121160
       5199.8400      0.43045590
       5201.3100      0.42173440
       5202.7800      0.39679830
       5204.2500      0.40211370
       5205.7200      0.43805500
       5207.1900      0.39508520
       5208.6600      0.40811400
       5210.1300      0.40910400
       5211.6000      0.39356660
       5213.0700      0.34723400
       5214.5400      0.37895660
       5216.0100      0.44847730
       5217.4800      0.44617570
       5218.9500      0.42541120
       5220.4200      0.40742740
       5221.8900      0.42478140
       5223.3600      0.42670190
       5224.8300      0.44788280
       5226.3000      0.40208490
       5227.7700      0.44207290
       5229.2400      0.46499140
       5230.7100      0.45744650
       5232.1800      0.44614440
       5233.6500      0.44058130
       5235.1200      0.46111280
       5236.5900      0.45501970
       5238.0600      0.44793750
       5239.5300      0.44537540
       5241.0000      0.43612660
       5242.4700      0.44889210
       5243.9400      0.45393310
       5245.4100      0.47443300
       5246.8800      0.50653150
       5248.3500      0.46825160
       5249.8200      0.47587530
       5251.2900      0.44976960
       5252.7600      0.45953340
       5254.2300      0.44898580
       5255.7000      0.43093740
       5257.1700      0.48300970
       5258.6400      0.44614790
       5260.1100      0.42569540
       5261.5800      0.47765330
       5263.0500      0.45830710
       5264.5200      0.42126550
       5265.9900      0.43581880
       5267.4600      0.44156760
       5268.9300      0.46465610
       5270.4000      0.49461670
       5271.8700      0.45391900
       5273.3400      0.46843860
       5274.8100      0.47685420
       5276.2800      0.42868720
       5277.7500      0.45798010
       5279.2200      0.47171650
       5280.6900      0.48398630
       5282.1600      0.50508340
       5283.6300      0.51334270
       5285.1000      0.50425160
       5286.5700      0.48360650
       5288.0400      0.48424450
       5289.5100      0.49313830
       5290.9800      0.49459830
       5292.4500      0.47700180
       5293.9200      0.49410520
       5295.3900      0.53306220
       5296.8600      0.49949470
       5298.3300      0.52804580
       5299.8000      0.55509050
       5301.2700      0.53389390
       5302.7400      0.52409900
       5304.2100      0.50075360
       5305.6800      0.52609120
       5307.1500      0.52434220
       5308.6200      0.50678410
       5310.0900      0.54270330
       5311.5600      0.54251270
       5313.0300      0.53548840
       5314.5000      0.54324360
       5315.9700      0.54634990
       5317.4400      0.51926710
       5318.9100      0.50151300
       5320.3800      0.53087050
       5321.8500      0.51231650
       5323.3200      0.51588990
       5324.7900      0.51886130
       5326.2600      0.50582030
       5327.7300      0.52403800
       5329.2000      0.49549910
       5330.6700      0.53074500
       5332.1400      0.55425260
       5333.6100      0.50429350
       5335.0800      0.53584090
       5336.5500      0.55023770
       5338.0200      0.51667860
       5339.4900      0.52754970
       5340.9600      0.53230980
       5342.4300      0.52730270
       5343.9000      0.53467300
       5345.3700      0.56204650
       5346.8400      0.55207590
       5348.3100      0.52357670
       5349.7800      0.51043570
       5351.2500      0.54731330
       5352.7200      0.57724400
       5354.1900      0.53510500
       5355.6600      0.52868410
       5357.1300      0.53589190
       5358.6000      0.54106750
       5360.0700      0.55801840
       5361.5400      0.55306770
       5363.0100      0.57948910
       5364.4800      0.54429850
       5365.9500      0.53440000
       5367.4200      0.58162500
       5368.8900      0.56544880
       5370.3600      0.55284160
       5371.8300      0.55374480
       5373.3000      0.56978180
       5374.7700      0.57083240
       5376.2400      0.54198440
       5377.7100      0.51197990
       5379.1800      0.51976660
       5380.6500      0.51044740
       5382.1200      0.51866640
       5383.5900      0.55900440
       5385.0600      0.56686790
       5386.5300      0.55441460
       5388.0000      0.52796160
       5389.4700      0.52409630
       5390.9400      0.56497900
       5392.4100      0.55284700
       5393.8800      0.52272420
       5395.3500      0.52962850
       5396.8200      0.55515180
       5398.2900      0.55517110
       5399.7600      0.52422260
       5401.2300      0.55644700
       5402.7000      0.55198170
       5404.1700      0.53130890
       5405.6400      0.52669700
       5407.1100      0.49295640
       5408.5800      0.51875820
       5410.0500      0.55740170
       5411.5200      0.55113130
       5412.9900      0.54329930
       5414.4600      0.51059250
       5415.9300      0.49824490
       5417.4000      0.50304960
       5418.8700      0.50512900
       5420.3400      0.52382600
       5421.8100      0.48959270
       5423.2800      0.47541590
       5424.7500      0.49328820
       5426.2200      0.51878430
       5427.6900      0.51325780
       5429.1600      0.49426330
       5430.6300      0.47473410
       5432.1000      0.44608620
       5433.5700      0.44917690
       5435.0400      0.47392750
       5436.5100      0.45757390
       5437.9800      0.46510140
       5439.4500      0.45766250
       5440.9200      0.44928800
       5442.3900      0.42946970
       5443.8599      0.40957400
       5445.3300      0.43855540
       5446.8000      0.40745170
       5448.2700      0.43727260
       5449.7400      0.46444900
       5451.2100      0.44028600
       5452.6800      0.44838560
       5454.1500      0.41106660
       5455.6200      0.41162540
       5457.0900      0.42404530
       5458.5600      0.42416390
       5460.0300      0.40283250
       5461.5000      0.43883280
       5462.9700      0.42940940
       5464.4400      0.39772610
       5465.9100      0.44645320
       5467.3800      0.45118920
       5468.8500      0.42924620
       5470.3200      0.42686570
       5471.7900      0.44132090
       5473.2600      0.42226960
       5474.7300      0.41828660
       5476.2000      0.47067110
       5477.6700      0.46153510
       5479.1400      0.48597510
       5480.6100      0.50270230
       5482.0800      0.49304150
       5483.5500      0.49622440
       5485.0200      0.46259720
       5486.4900      0.46719810
       5487.9600      0.52264300
       5489.4300      0.54835980
       5490.9000      0.53187850
       5492.3700      0.54947320
       5493.8400      0.52641610
       5495.3100      0.56092670
       5496.7800      0.59737560
       5498.2500      0.60120740
       5499.7200      0.58786130
       5501.1900      0.58458890
       5502.6600      0.56303420
       5504.1300      0.59436510
       5505.6000      0.61396600
       5507.0700      0.64673790
       5508.5400      0.63726640
       5510.0100      0.66102530
       5511.4800      0.71511230
       5512.9500      0.69080010
       5514.4200      0.68869260
       5515.8900      0.71900370
       5517.3600      0.71894580
       5518.8300      0.72448280
       5520.3000      0.73376480
       5521.7700      0.75727510
       5523.2400      0.79378060
       5524.7100      0.76689650
       5526.1800      0.75121340
       5527.6500      0.71665420
       5529.1200      0.76378420
       5530.5900      0.76390420
       5532.0600      0.78391840
       5533.5300      0.77720430
       5535.0000      0.75071950
       5536.4700      0.78921540
       5537.9400      0.78027650
       5539.4100      0.78460100
       5540.8800      0.81553830
       5542.3500      0.80827660
       5543.8200      0.79724290
       5545.2900      0.76301340
       5546.7600      0.74916420
       5548.2300      0.77479990
       5549.7000      0.76555990
       5551.1700      0.78831190
       5552.6400      0.76476490
       5554.1100      0.74198220
       5555.5800      0.73343080
       5557.0500      0.73202520
       5558.5200      0.69274040
       5559.9900      0.69062140
       5561.4600      0.66960940
       5562.9300      0.69369440
       5564.4000      0.69669400
       5565.8700      0.69670770
       5567.3400      0.68466270
       5568.8100      0.65964010
       5570.2800      0.65556760
       5571.7500      0.66049310
       5573.2200      0.70146610
       5574.6900      0.73106600
       5576.1600      0.67484210
       5577.6300      0.59311040
       5579.1000      0.66438630
       5580.5700      0.60493270
       5582.0400      0.50768820
       5583.5100      0.50520690
       5584.9800      0.54057960
       5586.4500      0.55350710
       5587.9200      0.50056110
       5589.3900      0.48960280
       5590.8600      0.51202970
       5592.3300      0.49230800
       5593.8000      0.49609430
       5595.2700      0.46012810
       5596.7400      0.46025640
       5598.2100      0.47261410
       5599.6800      0.49528650
       5601.1500      0.50151840
       5602.6200      0.48104210
       5604.0900      0.46669520
       5605.5600      0.43816830
       5607.0300      0.43409520
       5608.5000      0.45299640
       5609.9700      0.47207140
       5611.4400      0.45895810
       5612.9100      0.46932510
       5614.3800      0.46263690
       5615.8500      0.46156290
       5617.3200      0.45047110
       5618.7900      0.46244040
       5620.2600      0.47404880
       5621.7300      0.44179300
       5623.2000      0.46726960
       5624.6700      0.46512740
       5626.1400      0.47243880
       5627.6100      0.47225740
       5629.0800      0.48289060
       5630.5500      0.51029360
       5632.0200      0.51799510
       5633.4900      0.50785090
       5634.9600      0.51720850
       5636.4300      0.54349340
       5637.9000      0.54839400
       5639.3700      0.52310760
       5640.8400      0.52023830
       5642.3100      0.50128880
       5643.7800      0.51869080
       5645.2500      0.52894690
       5646.7200      0.51670530
       5648.1900      0.52705370
       5649.6600      0.50921480
       5651.1300      0.51215210
       5652.6000      0.55162010
       5654.0700      0.57341380
       5655.5400      0.54780140
       5657.0100      0.52807780
       5658.4800      0.51423820
       5659.9500      0.49397470
       5661.4200      0.51280860
       5662.8900      0.52348970
       5664.3600      0.48906600
       5665.8300      0.44367830
       5667.3000      0.42910390
       5668.7700      0.42206000
       5670.2400      0.42014320
       5671.7100      0.43646250
       5673.1800      0.41923460
       5674.6500      0.39388210
       5676.1200      0.35284810
       5677.5900      0.32897410
       5679.0600      0.35439860
       5680.5300      0.34650960
       5682.0000      0.34955540
       5683.4700      0.33937490
       5684.9400      0.30853170
       5686.4100      0.32531790
       5687.8800      0.32669780
       5689.3500      0.31594430
       5690.8200      0.34534460
       5692.2900      0.33777710
       5693.7600      0.31062090
       5695.2300      0.31219410
       5696.7000      0.28223720
       5698.1700      0.27687840
       5699.6400      0.27536640
       5701.1100      0.25849150
       5702.5800      0.23785460
       5704.0500      0.23501490
       5705.5200      0.24680000
       5706.9900      0.24640150
       5708.4600      0.23762210
       5709.9300      0.26101140
       5711.4000      0.26500850
       5712.8700      0.25169020
       5714.3400      0.25641960
       5715.8100      0.23853730
       5717.2800      0.24389850
       5718.7500      0.25435650
       5720.2200      0.23483830
       5721.6900      0.22471600
       5723.1600      0.26338770
       5724.6300      0.25687800
       5726.1000      0.25346600
       5727.5700      0.22895290
       5729.0400      0.25038490
       5730.5100      0.23619820
       5731.9800      0.23954620
       5733.4500      0.26083210
       5734.9200      0.23954460
       5736.3900      0.22868260
       5737.8600      0.20715510
       5739.3300      0.24590070
       5740.8000      0.24447980
       5742.2700      0.22110510
       5743.7400      0.24435180
       5745.2100      0.23387260
       5746.6800      0.23732990
       5748.1500      0.25385220
       5749.6200      0.24381590
       5751.0900      0.22272170
       5752.5600      0.22096910
       5754.0300      0.21865220
       5755.5000      0.21959540
       5756.9699      0.21058670
       5758.4400      0.20290680
       5759.9100      0.19770220
       5761.3800      0.22229580
       5762.8500      0.22027190
       5764.3200      0.20064690
       5765.7900      0.19656920
       5767.2600      0.20138030
       5768.7300      0.19014140
       5770.2000      0.19730680
       5771.6700      0.16523260
       5773.1400      0.16879560
       5774.6100      0.19609690
       5776.0800      0.20189090
       5777.5500      0.21160460
       5779.0200      0.20221880
       5780.4900      0.19766410
       5781.9600      0.21452410
       5783.4300      0.21880240
       5784.9000      0.20791010
       5786.3700      0.20725520
       5787.8400      0.21972270
       5789.3100      0.20161040
       5790.7800      0.19260770
       5792.2500      0.23472160
       5793.7200      0.24448190
       5795.1900      0.19696690
       5796.6600      0.18805170
       5798.1300      0.20733620
       5799.6000      0.20526500
       5801.0700      0.19876940
       5802.5400      0.23536210
       5804.0100      0.24219990
       5805.4800      0.24008180
       5806.9500      0.21726450
       5808.4200      0.20940410
       5809.8900      0.21870500
       5811.3600      0.22977800
       5812.8300      0.23498780
       5814.3000      0.25523500
       5815.7700      0.24906210
       5817.2400      0.25518290
       5818.7100      0.24259420
       5820.1800      0.26640370
       5821.6500      0.28715940
       5823.1200      0.29097770
       5824.5900      0.28586830
       5826.0600      0.27962180
       5827.5300      0.30514150
       5829.0000      0.31645740
       5830.4700      0.29557320
       5831.9400      0.30474600
       5833.4100      0.28089470
       5834.8800      0.32099520
       5836.3500      0.32548020
       5837.8200      0.33930850
       5839.2900      0.34841230
       5840.7600      0.34937250
       5842.2300      0.37135200
       5843.7000      0.37733690
       5845.1700      0.37386830
       5846.6400      0.36998060
       5848.1100      0.38203220
       5849.5800      0.40436210
       5851.0500      0.39275230
       5852.5200      0.38779980
       5853.9900      0.41800040
       5855.4600      0.42361940
       5856.9300      0.39481550
       5858.4000      0.40628060
       5859.8700      0.42857920
       5861.3400      0.40483870
       5862.8100      0.38141160
       5864.2800      0.41914330
       5865.7500      0.42561190
       5867.2200      0.45709550
       5868.6900      0.46197580
       5870.1600      0.43110270
       5871.6300      0.48524740
       5873.1000      0.50733040
       5874.5700      0.49665970
       5876.0400      0.46929190
       5877.5100      0.46508350
       5878.9800      0.48316010
       5880.4500      0.48728290
       5881.9200      0.49550940
       5883.3900      0.46188590
       5884.8600      0.46196210
       5886.3300      0.49516790
       5887.8000      0.52701620
       5889.2700      0.52204410
       5890.7400      0.45527360
       5892.2100      0.47686550
       5893.6800      0.51225390
       5895.1500      0.46954190
       5896.6200      0.48087780
       5898.0900      0.51573420
       5899.5600      0.52485910
       5901.0300      0.52754470
       5902.5000      0.52040490
       5903.9700      0.52193240
       5905.4400      0.53732450
       5906.9100      0.55461950
       5908.3800      0.55542210
       5909.8500      0.55584720
       5911.3200      0.52499330
       5912.7900      0.51365970
       5914.2600      0.53743040
       5915.7300      0.52334560
       5917.2000      0.51193020
       5918.6700      0.52729290
       5920.1400      0.52117380
       5921.6100      0.56823950
       5923.0800      0.54928400
       5924.5500      0.53864170
       5926.0200      0.52151470
       5927.4900      0.51934330
       5928.9600      0.53545680
       5930.4300      0.51447330
       5931.9000      0.54991990
       5933.3700      0.56158260
       5934.8400      0.52977310
       5936.3100      0.55275730
       5937.7800      0.53812250
       5939.2500      0.53501410
       5940.7200      0.51358190
       5942.1900      0.54013200
       5943.6600      0.55285570
       5945.1300      0.53431520
       5946.6000      0.49802130
       5948.0700      0.51757040
       5949.5400      0.51899730
       5951.0100      0.52639930
       5952.4800      0.49481950
       5953.9500      0.48692320
       5955.4200      0.52596470
       5956.8900      0.51645960
       5958.3600      0.50813110
       5959.8300      0.52135440
       5961.3000      0.51662240
       5962.7700      0.50900090
       5964.2400      0.49766100
       5965.7100      0.49327650
       5967.1800      0.52111140
       5968.6500      0.51440460
       5970.1200      0.48180560
       5971.5900      0.50856240
       5973.0600      0.51692620
       5974.5300      0.51389720
       5976.0000      0.51401930
       5977.4700      0.47643560
       5978.9400      0.47408260
       5980.4100      0.51781720
       5981.8800      0.49265000
       5983.3500      0.48122370
       5984.8200      0.48442090
       5986.2900      0.49517370
       5987.7600      0.49103010
       5989.2300      0.45602840
       5990.7000      0.44762190
       5992.1700      0.52180060
       5993.6400      0.47719830
       5995.1100      0.47320610
       5996.5800      0.48508050
       5998.0500      0.47687920
       5999.5200      0.47664410
       6000.9900      0.47536780
       6002.4600      0.45946760
       6003.9300      0.45564390
       6005.4000      0.46199370
       6006.8700      0.47327460
       6008.3400      0.46052670
       6009.8100      0.48026980
       6011.2800      0.43880410
       6012.7500      0.45052150
       6014.2200      0.45154570
       6015.6900      0.45144760
       6017.1600      0.44732960
       6018.6300      0.43687990
       6020.1000      0.46564830
       6021.5700      0.44123800
       6023.0400      0.44194140
       6024.5100      0.43853550
       6025.9800      0.40053500
       6027.4500      0.41784410
       6028.9200      0.39775050
       6030.3900      0.42294450
       6031.8600      0.43414540
       6033.3300      0.46051310
       6034.8000      0.45042230
       6036.2700      0.42999890
       6037.7400      0.42868920
       6039.2100      0.40611680
       6040.6800      0.41937380
       6042.1500      0.42871380
       6043.6200      0.41395280
       6045.0900      0.37608360
       6046.5600      0.38244940
       6048.0300      0.39597040
       6049.5000      0.41950190
       6050.9700      0.40067850
       6052.4400      0.39770960
       6053.9100      0.42464680
       6055.3800      0.40104260
       6056.8500      0.39672300
       6058.3200      0.40972430
       6059.7900      0.39417460
       6061.2600      0.36583760
       6062.7300      0.36089430
       6064.2000      0.37039550
       6065.6700      0.37609960
       6067.1400      0.40348490
       6068.6100      0.40275990
       6070.0800      0.37177150
       6071.5500      0.34935640
       6073.0200      0.35286990
       6074.4900      0.38343160
       6075.9600      0.39449310
       6077.4300      0.41176420
       6078.9000      0.41370900
       6080.3700      0.37467200
       6081.8400      0.35763300
       6083.3100      0.35930230
       6084.7800      0.35263300
       6086.2500      0.34469490
       6087.7200      0.34309070
       6089.1900      0.34376550
       6090.6600      0.35479660
       6092.1300      0.37180570
       6093.6000      0.36274620
       6095.0700      0.36098580
       6096.5400      0.38807660
       6098.0100      0.39551150
       6099.4800      0.39733330
       6100.9500      0.38315340
       6102.4200      0.33307770
       6103.8900      0.34343390
       6105.3600      0.35921630
       6106.8300      0.37728720
       6108.3000      0.35775390
       6109.7700      0.37934130
       6111.2400      0.38133490
       6112.7100      0.36399820
       6114.1800      0.35705380
       6115.6500      0.34190120
       6117.1200      0.36701720
       6118.5900      0.37426100
       6120.0600      0.34271290
       6121.5300      0.36717260
       6123.0000      0.38564310
       6124.4700      0.41172300
       6125.9400      0.39286690
       6127.4100      0.38587500
       6128.8800      0.36546370
       6130.3500      0.35245670
       6131.8200      0.40268320
       6133.2900      0.42358450
       6134.7600      0.42201610
       6136.2300      0.40627770
       6137.7000      0.39242090
       6139.1700      0.36503720
       6140.6400      0.35186030
       6142.1100      0.37553850
       6143.5800      0.36566270
       6145.0500      0.35497410
       6146.5200      0.41478960
       6147.9900      0.38671630
       6149.4600      0.37059800
       6150.9300      0.37633590
       6152.4000      0.38717100
       6153.8700      0.39259870
       6155.3400      0.40752830
       6156.8100      0.35803700
       6158.2800      0.40733470
       6159.7500      0.36350970
       6161.2200      0.41981370
       6162.6900      0.37950130
       6164.1600      0.35467170
       6165.6300      0.39386980
       6167.1000      0.35871450
       6168.5700      0.40818160
       6170.0400      0.38625290
       6171.5100      0.34377930
       6172.9800      0.37887960
       6174.4500      0.42661540
       6175.9200      0.37163290
       6177.3900      0.36863580
       6178.8600      0.37260960
       6180.3300      0.37583970
       6181.8000      0.41146270
       6183.2700      0.39438130
       6184.7400      0.43627350
       6186.2100      0.43438130
       6187.6800      0.42476230
       6189.1500      0.42456510
       6190.6200      0.40262860
       6192.0900      0.46717180
       6193.5600      0.46598650
       6195.0300      0.44438520
       6196.5000      0.44934920
       6197.9700      0.44131530
       6199.4400      0.43686290
       6200.9100      0.44653990
       6202.3800      0.45088130
       6203.8500      0.46932340
       6205.3200      0.51348200
       6206.7900      0.49702280
       6208.2600      0.54777590
       6209.7300      0.55438190
       6211.2000      0.53062670
       6212.6700      0.54537670
       6214.1400      0.57086250
       6215.6100      0.57530170
       6217.0800      0.58346990
       6218.5500      0.59222300
       6220.0200      0.63649580
       6221.4900      0.65182220
       6222.9600      0.65183250
       6224.4300      0.67445350
       6225.9000      0.68460040
       6227.3700      0.68896340
       6228.8400      0.71952810
       6230.3100      0.73097650
       6231.7800      0.75687730
       6233.2500      0.76462240
       6234.7200      0.74061200
       6236.1900      0.74023920
       6237.6600      0.80598650
       6239.1300      0.83129570
       6240.6000      0.86298700
       6242.0700      0.86374370
       6243.5400      0.83752510
       6245.0100      0.82752850
       6246.4800      0.80811850
       6247.9500      0.84059200
       6249.4200      0.85650710
       6250.8900      0.85511720
       6252.3600      0.85894320
       6253.8300      0.86087550
       6255.3000      0.83305760
       6256.7700      0.80415240
       6258.2400      0.84953160
       6259.7100      0.87755450
       6261.1800      0.86980860
       6262.6500      0.90158880
       6264.1200      0.89803030
       6265.5900      0.83885570
       6267.0600      0.83232960
       6268.5300      0.85830900
       6270.0000      0.83396280
       6271.4700      0.83128790
       6272.9400      0.86415790
       6274.4100      0.84919480
       6275.8800      0.86066690
       6277.3500      0.89666620
       6278.8200      0.90809470
       6280.2900      0.89205810
       6281.7600      0.88485650
       6283.2300      0.92633410
       6284.7000      0.92534960
       6286.1700      0.92967120
       6287.6400      0.92980120
       6289.1100      0.90506270
       6290.5800      0.90211910
       6292.0500      0.93127320
       6293.5200      0.94302760
       6294.9900      0.91207060
       6296.4600      0.92107890
       6297.9300      0.95281640
       6299.4000      0.83963330
       6300.8700      0.89230810
       6302.3400      0.93442960
       6303.8100      0.95048520
       6305.2800      0.97268500
       6306.7500      0.92108620
       6308.2200      0.89952800
       6309.6900      0.89399380
       6311.1600      0.85183840
       6312.6300      0.83348690
       6314.1000      0.84601170
       6315.5700      0.87403290
       6317.0400      0.89535570
       6318.5100      0.89230180
       6319.9800      0.87564980
       6321.4500      0.86075580
       6322.9200      0.80720230
       6324.3900      0.83186410
       6325.8600      0.83939330
       6327.3300      0.81202230
       6328.8000      0.84349600
       6330.2700      0.82761110
       6331.7400      0.80572660
       6333.2100      0.83204170
       6334.6800      0.83359890
       6336.1500      0.80450500
       6337.6200      0.82202330
       6339.0900      0.84835650
       6340.5600      0.82660050
       6342.0300      0.80260140
       6343.5000      0.79687230
       6344.9700      0.79910300
       6346.4400      0.76367960
       6347.9100      0.78137990
       6349.3800      0.79406460
       6350.8500      0.77276190
       6352.3200      0.74146420
       6353.7900      0.71012600
       6355.2600      0.75103570
       6356.7300      0.77916910
       6358.2000      0.74824210
       6359.6700      0.73275110
       6361.1400      0.74229850
       6362.6100      0.75429910
       6364.0800      0.75310490
       6365.5500      0.78515920
       6367.0200      0.73266020
       6368.4900      0.71343980
       6369.9600      0.73515140
       6371.4300      0.73451070
       6372.9000      0.71668500
       6374.3700      0.72202070
       6375.8400      0.71334770
       6377.3100      0.71288890
       6378.7800      0.65021290
       6380.2500      0.66462370
       6381.7200      0.66584610
       6383.1900      0.65837760
       6384.6600      0.60672550
       6386.1300      0.64929030
       6387.6000      0.66810490
       6389.0700      0.61444740
       6390.5400      0.61420170
       6392.0100      0.62235530
       6393.4800      0.62405160
       6394.9500      0.63732710
       6396.4200      0.63510600
       6397.8900      0.66251180
       6399.3600      0.66755520
       6400.8300      0.65284410
       6402.3000      0.63979110
       6403.7700      0.61909190
       6405.2400      0.58129000
       6406.7100      0.60106640
       6408.1800      0.64717420
       6409.6500      0.61557390
       6411.1200      0.57746880
       6412.5900      0.55644670
       6414.0600      0.57631120
       6415.5300      0.56928140
       6417.0000      0.57689910
       6418.4700      0.57361930
       6419.9400      0.60158930
       6421.4100      0.56573640
       6422.8800      0.56849410
       6424.3500      0.59437610
       6425.8200      0.60840460
       6427.2900      0.59745690
       6428.7600      0.56171570
       6430.2300      0.54271750
       6431.7000      0.54903750
       6433.1700      0.54667790
       6434.6400      0.54923280
       6436.1100      0.57214670
       6437.5800      0.52729790
       6439.0500      0.53305700
       6440.5200      0.57054190
       6441.9900      0.54038470
       6443.4600      0.51321760
       6444.9300      0.53391550
       6446.4000      0.55462410
       6447.8700      0.57792990
       6449.3400      0.58210230
       6450.8100      0.56092890
       6452.2800      0.55888070
       6453.7500      0.53719690
       6455.2200      0.53489770
       6456.6900      0.54033440
       6458.1600      0.53234840
       6459.6300      0.52142800
       6461.1000      0.54630740
       6462.5700      0.57486480
       6464.0400      0.54161610
       6465.5100      0.51534960
       6466.9800      0.54160890
       6468.4500      0.57630720
       6469.9200      0.56010530
       6471.3900      0.55844910
       6472.8600      0.55891310
       6474.3300      0.55246130
       6475.8000      0.53491250
       6477.2700      0.52477120
       6478.7400      0.50817950
       6480.2100      0.51435450
       6481.6800      0.52224200
       6483.1500      0.51434630
       6484.6200      0.54273330
       6486.0900      0.52235750
       6487.5600      0.49623740
       6489.0300      0.51418660
       6490.5000      0.51666300
       6491.9700      0.51848210
       6493.4400      0.54903750
       6494.9100      0.54935750
       6496.3800      0.53809950
       6497.8500      0.54501060
       6499.3200      0.53925500
       6500.7900      0.54081570
       6502.2600      0.51853740
       6503.7300      0.50568870
       6505.2000      0.48410950
       6506.6700      0.50280260
       6508.1400      0.54237250
       6509.6100      0.54208140
       6511.0800      0.53775350
       6512.5500      0.53172730
       6514.0200      0.50830420
       6515.4900      0.48765340
       6516.9600      0.52161470
       6518.4300      0.52946110
       6519.9000      0.52986990
       6521.3700      0.54507370
       6522.8400      0.50752340
       6524.3100      0.52238920
       6525.7800      0.51068610
       6527.2500      0.48218620
       6528.7200      0.47405620
       6530.1900      0.45566900
       6531.6600      0.49458830
       6533.1300      0.49064590
       6534.6000      0.48359840
       6536.0700      0.45842590
       6537.5400      0.45718070
       6539.0100      0.47788740
       6540.4800      0.48038440
       6541.9500      0.47517200
       6543.4200      0.47720750
       6544.8900      0.49212210
       6546.3600      0.47787910
       6547.8300      0.45741870
       6549.3000      0.46355120
       6550.7700      0.44660430
       6552.2400      0.43635330
       6553.7100      0.45917560
       6555.1800      0.47816520
       6556.6500      0.48148960
       6558.1200      0.45181130
       6559.5900      0.44937380
       6561.0600      0.43947140
       6562.5300      0.48736390
       6564.0000      0.45348480
       6565.4700      0.41380140
       6566.9400      0.44580540
       6568.4100      0.47877320
       6569.8800      0.48893040
       6571.3500      0.47786780
       6572.8200      0.47437350
       6574.2900      0.45645450
       6575.7600      0.45715280
       6577.2300      0.47016850
       6578.7000      0.48391990
       6580.1700      0.46520690
       6581.6400      0.48720970
       6583.1100      0.47842870
       6584.5800      0.50962870
       6586.0500      0.48471350
       6587.5200      0.47076140
       6588.9900      0.54551680
       6590.4600      0.59289290
       6591.9300      0.62409700
       6593.4000      0.63955030
       6594.8700      0.58447820
       6596.3400      0.43554710
       6597.8100      0.41988260
       6599.2800      0.44936270
       6600.7500      0.40269090
       6602.2200      0.39270130
       6603.6900      0.45196110
       6605.1600      0.46273060
       6606.6300      0.45016240
       6608.1000      0.44381820
       6609.5700      0.43451440
       6611.0400      0.46444100
       6612.5100      0.48090170
       6613.9800      0.46542260
       6615.4500      0.46306430
       6616.9200      0.48107330
       6618.3900      0.45550160
       6619.8600      0.42628940
       6621.3300      0.44620780
       6622.8000      0.43610040
       6624.2700      0.43167620
       6625.7400      0.44645480
       6627.2100      0.43259140
       6628.6800      0.42262250
       6630.1500      0.41164830
       6631.6200      0.42078930
       6633.0900      0.43569370
       6634.5600      0.40351510
       6636.0300      0.39079510
       6637.5000      0.38845260
       6638.9700      0.38571790
       6640.4400      0.37679370
       6641.9100      0.37215480
       6643.3800      0.38053040
       6644.8500      0.39405380
       6646.3200      0.42772600
       6647.7900      0.43372990
       6649.2600      0.39057770
       6650.7300      0.36789600
       6652.2000      0.37474800
       6653.6700      0.39540090
       6655.1400      0.38892780
       6656.6100      0.36727930
       6658.0800      0.38596140
       6659.5500      0.42846640
       6661.0200      0.41005910
       6662.4900      0.36031750
       6663.9600      0.37041850
       6665.4300      0.37202250
       6666.9000      0.37338560
       6668.3700      0.35725400
       6669.8400      0.33638380
       6671.3100      0.35181450
       6672.7800      0.34597470
       6674.2500      0.35973930
       6675.7200      0.38026250
       6677.1900      0.38766950
       6678.6600      0.38759800
       6680.1300      0.37174440
       6681.6000      0.37160130
       6683.0700      0.38505420
       6684.5400      0.35427400
       6686.0100      0.37422700
       6687.4800      0.39335340
       6688.9500      0.35728670
       6690.4200      0.38066040
       6691.8900      0.37460000
       6693.3600      0.34496430
       6694.8300      0.35217910
       6696.3000      0.38265370
       6697.7700      0.37154010
       6699.2400      0.32075790
       6700.7100      0.32091700
       6702.1800      0.34412850
       6703.6500      0.34339200
       6705.1200      0.33964330
       6706.5900      0.32822470
       6708.0600      0.30230840
       6709.5300      0.29559480
       6711.0000      0.32419910
       6712.4700      0.33047910
       6713.9400      0.32081060
       6715.4100      0.30367900
       6716.8800      0.31583710
       6718.3500      0.31662850
       6719.8200      0.31979890
       6721.2900      0.32264940
       6722.7600      0.31450260
       6724.2300      0.32800560
       6725.7000      0.35488610
       6727.1700      0.32086130
       6728.6400      0.30478000
       6730.1100      0.30100690
       6731.5800      0.30656180
       6733.0500      0.31580230
       6734.5200      0.33247700
       6735.9900      0.29595100
       6737.4600      0.31254810
       6738.9300      0.29582420
       6740.4000      0.32985520
       6741.8700      0.31338040
       6743.3400      0.31634020
       6744.8100      0.32127330
       6746.2800      0.33463500
       6747.7500      0.32556580
       6749.2200      0.29925450
       6750.6900      0.29990550
       6752.1600      0.27018980
       6753.6300      0.26365790
       6755.1000      0.26869410
       6756.5700      0.30296460
       6758.0400      0.30016900
       6759.5100      0.33585750
       6760.9800      0.34434020
       6762.4500      0.31032770
       6763.9200      0.30768460
       6765.3900      0.27956100
       6766.8600      0.29411210
       6768.3300      0.28151410
       6769.8000      0.27281480
       6771.2700      0.28263960
       6772.7400      0.27515920
       6774.2100      0.31111320
       6775.6800      0.27962480
       6777.1500      0.29651730
       6778.6200      0.28786760
       6780.0900      0.28291300
       6781.5600      0.27770790
       6783.0300      0.26848700
       6784.5000      0.27682050
       6785.9700      0.27672910
       6787.4400      0.26252950
       6788.9100      0.27671910
       6790.3800      0.27339390
       6791.8500      0.28376980
       6793.3200      0.29199000
       6794.7900      0.27722130
       6796.2600      0.26175050
       6797.7300      0.27381460
       6799.2000      0.27166750
       6800.6700      0.27162750
       6802.1400      0.23877220
       6803.6100      0.28489230
       6805.0800      0.27946100
       6806.5500      0.29234270
       6808.0200      0.29413420
       6809.4900      0.27685940
       6810.9600      0.27636550
       6812.4300      0.28392860
       6813.9000      0.29456560
       6815.3700      0.31455990
       6816.8400      0.28225480
       6818.3100      0.30138910
       6819.7800      0.29843710
       6821.2500      0.27712610
       6822.7200      0.28198920
       6824.1900      0.26611910
       6825.6600      0.26408360
       6827.1300      0.27327950
       6828.6000      0.27357520
       6830.0700      0.26097570
       6831.5400      0.30734550
       6833.0100      0.25694150
       6834.4800      0.23536720
       6835.9500      0.27445030
       6837.4200      0.28370580
       6838.8900      0.27806200
       6840.3600      0.23717020
       6841.8300      0.25901230
       6843.3000      0.27667180
       6844.7700      0.30404110
       6846.2400      0.28608610
       6847.7100      0.27160240
       6849.1800      0.25832800
       6850.6500      0.25845560
       6852.1200      0.29622960
       6853.5900      0.27707030
       6855.0600      0.24573920
       6856.5300      0.25913100
       6858.0000      0.26258890
       6859.4700      0.30591810
       6860.9400      0.31638660
       6862.4100      0.27038200
       6863.8800      0.25729090
       6865.3500      0.25880100
       6866.8200      0.25717430
       6868.2900      0.25356290
       6869.7600      0.25657840
       6871.2300      0.26383480
       6872.7000      0.25611320
       6874.1700      0.25281540
       6875.6400      0.28015050
       6877.1100      0.25885030
       6878.5800      0.25238290
       6880.0500      0.28584500
       6881.5200      0.25737970
       6882.9901      0.23212070
       6884.4600      0.23461080
       6885.9300      0.23657060
       6887.4000      0.23874950
       6888.8700      0.24979370
       6890.3400      0.25468220
       6891.8100      0.26109330
       6893.2800      0.26889720
       6894.7500      0.24419550
       6896.2200      0.21962020
       6897.6900      0.21639910
       6899.1600      0.24261640
       6900.6300      0.23906580
       6902.1000      0.25144030
       6903.5700      0.26667170
       6905.0400      0.21750110
       6906.5100      0.21396160
       6907.9800      0.23096080
       6909.4500      0.23497890
       6910.9200      0.23123320
       6912.3900      0.24632060
       6913.8600      0.23540250
       6915.3300      0.20567030
       6916.8000      0.23636220
       6918.2700      0.23067500
       6919.7400      0.23785950
       6921.2100      0.22525580
       6922.6800      0.19793130
       6924.1500      0.24099550
       6925.6200      0.24189440
       6927.0900      0.22077890
       6928.5600      0.24335980
       6930.0300      0.23492430
       6931.5000      0.21888260
       6932.9700      0.22668240
       6934.4400      0.23509600
       6935.9100      0.24193520
       6937.3800      0.25036070
       6938.8500      0.26170680
       6940.3200      0.26457230
       6941.7900      0.24339150
       6943.2600      0.20985210
       6944.7300      0.22795960
       6946.2000      0.25729620
       6947.6700      0.27777220
       6949.1400      0.26860090
       6950.6100      0.25373990
       6952.0800      0.29731410
       6953.5500      0.27857400
       6955.0200      0.25954850
       6956.4900      0.24472970
       6957.9600      0.25304240
       6959.4300      0.25087460
       6960.9000      0.25009140
       6962.3700      0.30194250
       6963.8400      0.26229090
       6965.3100      0.25876910
       6966.7800      0.27242090
       6968.2500      0.28598900
       6969.7200      0.29365610
       6971.1900      0.30468600
       6972.6600      0.31841400
       6974.1300      0.30075470
       6975.6000      0.27694390
       6977.0700      0.26278290
       6978.5400      0.28764560
       6980.0100      0.29005570
       6981.4800      0.28916090
       6982.9500      0.29974600
       6984.4200      0.28480960
       6985.8900      0.28698620
       6987.3600      0.28865680
       6988.8300      0.25948380
       6990.3000      0.26257510
       6991.7700      0.29264470
       6993.2400      0.31650840
       6994.7100      0.32013680
       6996.1800      0.31709000
       6997.6500      0.32427090
       6999.1200      0.27951540
       7000.5900      0.30402270
       7002.0600      0.31685390
       7003.5300      0.31633870
       7005.0000      0.30536330
       7006.4700      0.28749480
       7007.9400      0.29844250
       7009.4100      0.35064910
       7010.8800      0.32399530
       7012.3500      0.33217980
       7013.8200      0.34417590
       7015.2900      0.39134330
       7016.7600      0.33823790
       7018.2300      0.34137750
       7019.7000      0.30622440
       7021.1700      0.32021760
       7022.6400      0.28195330
       7024.1100      0.30872250
       7025.5800      0.32675770
       7027.0500      0.30443510
       7028.5200      0.30989900
       7029.9900      0.32334360
       7031.4600      0.28952880
       7032.9300      0.28550540
       7034.4000      0.30089050
       7035.8700      0.30683190
       7037.3400      0.32587440
       7038.8100      0.29713900
       7040.2800      0.30454740
       7041.7500      0.29460780
       7043.2200      0.30768910
       7044.6900      0.32930990
       7046.1600      0.29469250
       7047.6300      0.28009470
       7049.1000      0.29751050
       7050.5700      0.32997830
       7052.0400      0.30225210
       7053.5100      0.27196090
       7054.9800      0.28952820
       7056.4500      0.32951740
       7057.9200      0.34110770
       7059.3900      0.31297390
       7060.8600      0.29276550
       7062.3300      0.33420620
       7063.8000      0.31175400
       7065.2700      0.29555980
       7066.7400      0.28759070
       7068.2100      0.30385120
       7069.6800      0.29822420
       7071.1500      0.29804380
       7072.6200      0.35448620
       7074.0900      0.31007320
       7075.5600      0.30455120
       7077.0300      0.32051320
       7078.5000      0.31182890
       7079.9700      0.30518880
       7081.4400      0.32879210
       7082.9100      0.35106030
       7084.3800      0.32459000
       7085.8500      0.29608730
       7087.3200      0.31543460
       7088.7900      0.32686560
       7090.2600      0.34710000
       7091.7300      0.33614720
       7093.2000      0.31703670
       7094.6700      0.30561210
       7096.1400      0.32338450
       7097.6100      0.31855400
       7099.0800      0.30638260
       7100.5500      0.32294680
       7102.0200      0.33145900
       7103.4900      0.31805770
       7104.9600      0.30384510
       7106.4300      0.31901330
       7107.9000      0.36093890
       7109.3700      0.33199600
       7110.8400      0.33016110
       7112.3100      0.33757410
       7113.7800      0.31708860
       7115.2500      0.29466490
       7116.7200      0.31480230
       7118.1900      0.31006160
       7119.6600      0.27096680
       7121.1300      0.31191250
       7122.6000      0.32170920
       7124.0700      0.28714780
       7125.5400      0.33093960
       7127.0100      0.32293080
       7128.4800      0.32984390
       7129.9500      0.32376670
       7131.4200      0.31342150
       7132.8900      0.32117310
       7134.3600      0.30608580
       7135.8300      0.30417170
       7137.3000      0.29600620
       7138.7700      0.29799350
       7140.2400      0.27208750
       7141.7100      0.24995760
       7143.1800      0.30166270
       7144.6500      0.34770440
       7146.1200      0.33136310
       7147.5900      0.32739760
       7149.0600      0.30573060
       7150.5300      0.31703220
       7152.0000      0.31754810
       7153.4700      0.31029580
       7154.9400      0.32308090
       7156.4100      0.33207380
       7157.8800      0.33804740
       7159.3500      0.31635570
       7160.8200      0.33972380
       7162.2900      0.36439730
       7163.7600      0.34243490
       7165.2300      0.30980300
       7166.7000      0.35155360
       7168.1700      0.35683850
       7169.6400      0.33026730
       7171.1100      0.33823520
       7172.5800      0.32516890
       7174.0500      0.34046950
       7175.5200      0.38344720
       7176.9900      0.37951580
       7178.4600      0.34999030
       7179.9300      0.32879770
       7181.4000      0.33621440
       7182.8700      0.36112110
       7184.3400      0.33360150
       7185.8100      0.34064960
       7187.2800      0.39379140
       7188.7500      0.37890160
       7190.2200      0.35130280
       7191.6900      0.37363010
       7193.1600      0.39037000
       7194.6300      0.38664290
       7196.1001      0.37278450
       7197.5700      0.36190040
       7199.0400      0.35334660
       7200.5100      0.36373230
       7201.9800      0.36832930
       7203.4500      0.38877310
       7204.9200      0.41672960
       7206.3900      0.40424040
       7207.8600      0.37665190
       7209.3300      0.34632130
       7210.8000      0.38898350
       7212.2700      0.42384100
       7213.7400      0.37162240
       7215.2100      0.36780870
       7216.6800      0.40046500
       7218.1500      0.38305470
       7219.6200      0.36310880
       7221.0900      0.38443660
       7222.5600      0.40239030
       7224.0300      0.41327180
       7225.5000      0.40144070
       7226.9700      0.41405460
       7228.4400      0.38167850
       7229.9100      0.35910550
       7231.3800      0.38669020
       7232.8500      0.41589750
       7234.3200      0.45092130
       7235.7900      0.41084990
       7237.2600      0.40151540
       7238.7300      0.41548350
       7240.2000      0.42781140
       7241.6700      0.39455870
       7243.1400      0.33823580
       7244.6100      0.36274630
       7246.0800      0.44702940
       7247.5500      0.41038870
       7249.0200      0.42041360
       7250.4900      0.38714890
       7251.9600      0.38589550
       7253.4300      0.42404960
       7254.9000      0.41692120
       7256.3700      0.44111370
       7257.8400      0.45716200
       7259.3100      0.45985730
       7260.7800      0.45586830
       7262.2500      0.45326040
       7263.7200      0.44290310
       7265.1900      0.47226050
       7266.6600      0.42328100
       7268.1300      0.41179820
       7269.6000      0.43969270
       7271.0700      0.43845130
       7272.5400      0.44443400
       7274.0100      0.45327070
       7275.4800      0.49852650
       7276.9500      0.50932550
       7278.4200      0.48693850
       7279.8900      0.44227470
       7281.3600      0.43677210
       7282.8300      0.45741340
       7284.3000      0.44417540
       7285.7700      0.49189620
       7287.2400      0.55515760
       7288.7100      0.51450970
       7290.1800      0.46030610
       7291.6500      0.49783720
       7293.1200      0.51678750
       7294.5900      0.51461260
       7296.0600      0.49240290
       7297.5300      0.47597240
       7299.0000      0.50157470
       7300.4700      0.55544020
       7301.9400      0.54472610
       7303.4100      0.54714560
       7304.8800      0.53737520
       7306.3500      0.54707420
       7307.8200      0.57097950
       7309.2900      0.53157860
       7310.7600      0.57431310
       7312.2300      0.59987090
       7313.7000      0.60250850
       7315.1700      0.54457870
       7316.6400      0.53981290
       7318.1100      0.57003980
       7319.5800      0.60990720
       7321.0500      0.53539060
       7322.5200      0.56383400
       7323.9900      0.60001210
       7325.4600      0.56728830
       7326.9300      0.52179890
       7328.4000      0.48937140
       7329.8700      0.50338180
       7331.3400      0.52900840
       7332.8100      0.50848610
       7334.2800      0.52376660
       7335.7500      0.52652730
       7337.2200      0.47529130
       7338.6900      0.47746730
       7340.1600      0.53105800
       7341.6300      0.47846170
       7343.1000      0.51120760
       7344.5700      0.52204820
       7346.0400      0.51806940
       7347.5100      0.55353290
       7348.9800      0.53596090
       7350.4500      0.56850150
       7351.9200      0.57005190
       7353.3900      0.55723020
       7354.8600      0.56356710
       7356.3300      0.55465950
       7357.8000      0.51399640
       7359.2700      0.53431310
       7360.7400      0.49240570
       7362.2100      0.50331840
       7363.6800      0.43702300
       7365.1500      0.42814420
       7366.6200      0.48544080
       7368.0900      0.46994400
       7369.5600      0.46630660
       7371.0300      0.49396060
       7372.5000      0.50182600
       7373.9700      0.46230200
       7375.4400      0.47225330
       7376.9100      0.46799290
       7378.3800      0.47881980
       7379.8500      0.44363550
       7381.3200      0.43424730
       7382.7900      0.44766780
       7384.2600      0.45236580
       7385.7300      0.45691670
       7387.2000      0.43837160
       7388.6700      0.44889050
       7390.1400      0.42366820
       7391.6100      0.45201840
       7393.0800      0.42215490
       7394.5500      0.42095910
       7396.0200      0.40544980
       7397.4900      0.39314680
       7398.9600      0.41008300
       7400.4300      0.43119570
       7401.9000      0.47854850
       7403.3700      0.43184030
       7404.8400      0.40929780
       7406.3100      0.45474530
       7407.7800      0.44233450
       7409.2500      0.44285390
       7410.7200      0.42224180
       7412.1900      0.41579060
       7413.6600      0.41876760
       7415.1300      0.42008410
       7416.6000      0.39929770
       7418.0700      0.41157810
