Units are: observed wavelength (Ang), observed flux (10^-15 erg/s/cm^2/Ang)
       3500.3388       2.0679780
       3502.2811       2.0456520
       3504.2232       2.0592750
       3506.1653       2.0635860
       3508.1075       2.0743750
       3510.0497       2.0893140
       3511.9919       2.1197810
       3513.9340       2.1201640
       3515.8761       2.1390820
       3517.8183       2.1547460
       3519.7605       2.1709250
       3521.7027       2.1894650
       3523.6448       2.1771280
       3525.5869       2.1752170
       3527.5292       2.1602950
       3529.4713       2.1661150
       3531.4134       2.1526040
       3533.3556       2.1556190
       3535.2978       2.1397380
       3537.2400       2.1755110
       3539.1821       2.2025060
       3541.1242       2.1563670
       3543.0665       2.1253130
       3545.0086       2.1326680
       3546.9508       2.1413820
       3548.8929       2.1338450
       3550.8350       2.1386220
       3552.7773       2.1281010
       3554.7194       2.1354030
       3556.6616       2.1170390
       3558.6037       2.0962600
       3560.5459       2.1208790
       3562.4881       2.1449820
       3564.4302       2.1347030
       3566.3723       2.1120460
       3568.3146       2.1326600
       3570.2567       2.1619780
       3572.1989       2.1534150
       3574.1410       2.1409710
       3576.0832       2.1261620
       3578.0254       2.1084290
       3579.9675       2.0961630
       3581.9097       2.0899520
       3583.8518       2.0919750
       3585.7940       2.0909340
       3587.7362       2.0609800
       3589.6783       2.0650740
       3591.6204       2.0612210
       3593.5627       2.0439460
       3595.5048       2.0059940
       3597.4470       1.9996260
       3599.3891       1.9973640
       3601.3313       1.9745240
       3603.2735       1.9468750
       3605.2156       1.9417110
       3607.1578       1.9257050
       3609.1000       1.9256380
       3611.0421       1.9243160
       3612.9843       1.8915300
       3614.9264       1.8524680
       3616.8686       1.8299400
       3618.8108       1.8440840
       3620.7529       1.8475910
       3622.6951       1.8360160
       3624.6372       1.8292250
       3626.5794       1.8381350
       3628.5216       1.8779970
       3630.4637       1.9136710
       3632.4059       1.9070420
       3634.3481       1.9129530
       3636.2902       1.9218570
       3638.2324       1.9414880
       3640.1745       1.9950360
       3642.1167       2.0147560
       3644.0589       2.0441640
       3646.0010       2.0963960
       3647.9432       2.1283070
       3649.8853       2.1203100
       3651.8276       2.1463620
       3653.7697       2.1762550
       3655.7118       2.1684490
       3657.6540       2.1670070
       3659.5962       2.2082570
       3661.5383       2.2454210
       3663.4805       2.2450370
       3665.4226       2.2453030
       3667.3649       2.2452270
       3669.3070       2.2830160
       3671.2491       2.3091100
       3673.1913       2.3027180
       3675.1334       2.3100110
       3677.0757       2.3055900
       3679.0178       2.3041340
       3680.9599       2.2829370
       3682.9021       2.2374160
       3684.8443       2.2381390
       3686.7864       2.2587480
       3688.7286       2.2522030
       3690.6707       2.2167510
       3692.6130       2.1844060
       3694.5551       2.1761280
       3696.4972       2.1445510
       3698.4394       2.1026340
       3700.3816       2.0714200
       3702.3238       2.0452010
       3704.2659       1.9986100
       3706.2080       1.9590850
       3708.1502       1.9254300
       3710.0924       1.9192310
       3712.0346       1.8939300
       3713.9767       1.8666140
       3715.9188       1.8212130
       3717.8611       1.8040650
       3719.8032       1.8030090
       3721.7453       1.7868200
       3723.6875       1.7934690
       3725.6297       1.8134190
       3727.5719       1.8055660
       3729.5140       1.8310750
       3731.4561       1.8399040
       3733.3983       1.8477300
       3735.3405       1.8713040
       3737.2827       1.8786410
       3739.2248       1.8809380
       3741.1669       1.8896570
       3743.1092       1.8885650
       3745.0513       1.8874360
       3746.9934       1.8837090
       3748.9356       1.8914830
       3750.8778       1.8697680
       3752.8200       1.8527300
       3754.7621       1.8237120
       3756.7042       1.8064130
       3758.6465       1.8024730
       3760.5886       1.7634440
       3762.5308       1.7204040
       3764.4729       1.7116440
       3766.4150       1.7150010
       3768.3573       1.6606120
       3770.2994       1.6293630
       3772.2416       1.6275050
       3774.1837       1.6077210
       3776.1259       1.6032850
       3778.0681       1.5631720
       3780.0102       1.5286150
       3781.9523       1.5057020
       3783.8946       1.4867730
       3785.8367       1.4947360
       3787.7789       1.4981750
       3789.7210       1.4977980
       3791.6632       1.5203500
       3793.6054       1.5273250
       3795.5475       1.5519800
       3797.4897       1.5868530
       3799.4318       1.6026790
       3801.3740       1.6199440
       3803.3162       1.6290060
       3805.2583       1.6332240
       3807.2004       1.6469220
       3809.1427       1.6767260
       3811.0848       1.6908030
       3813.0270       1.6992230
       3814.9691       1.7034900
       3816.9113       1.7119590
       3818.8535       1.7168000
       3820.7956       1.7428480
       3822.7378       1.7909420
       3824.6799       1.8124410
       3826.6221       1.8400990
       3828.5643       1.8807150
       3830.5064       1.9187650
       3832.4486       1.9588380
       3834.3908       1.9835850
       3836.3329       2.0215410
       3838.2751       2.0636210
       3840.2172       2.0818320
       3842.1594       2.1294780
       3844.1016       2.1704060
       3846.0437       2.1899550
       3847.9859       2.1910870
       3849.9281       2.1940350
       3851.8702       2.1890840
       3853.8124       2.1988270
       3855.7545       2.2260340
       3857.6967       2.2505520
       3859.6389       2.2515740
       3861.5810       2.2518490
       3863.5232       2.2815860
       3865.4653       2.2903210
       3867.4076       2.2743320
       3869.3497       2.2796860
       3871.2918       2.2962890
       3873.2340       2.3096450
       3875.1762       2.3147490
       3877.1183       2.3119970
       3879.0605       2.3193200
       3881.0026       2.3405980
       3882.9449       2.3605790
       3884.8870       2.3720810
       3886.8291       2.3835590
       3888.7713       2.3812030
       3890.7134       2.3729210
       3892.6557       2.3457180
       3894.5978       2.3480240
       3896.5399       2.3612140
       3898.4821       2.3511050
       3900.4243       2.3402640
       3902.3664       2.3260680
       3904.3086       2.3130420
       3906.2507       2.3209350
       3908.1930       2.3401680
       3910.1351       2.3559000
       3912.0772       2.3594350
       3914.0194       2.3451780
       3915.9615       2.3328210
       3917.9038       2.3350770
       3919.8459       2.3346020
       3921.7880       2.3405700
       3923.7302       2.3612550
       3925.6724       2.3447550
       3927.6146       2.3118160
       3929.5567       2.2945770
       3931.4988       2.2835210
       3933.4411       2.2871860
       3935.3832       2.3082310
       3937.3253       2.3263380
       3939.2675       2.3352480
       3941.2097       2.3388430
       3943.1519       2.3540240
       3945.0940       2.3597580
       3947.0361       2.3247770
       3948.9783       2.2529130
       3950.9205       2.2255510
       3952.8627       2.2509060
       3954.8048       2.2652980
       3956.7469       2.2733170
       3958.6892       2.2815230
       3960.6313       2.2780320
       3962.5734       2.2510450
       3964.5156       2.2099750
       3966.4578       2.1776870
       3968.4000       2.1516630
       3970.3421       2.1311460
       3972.2842       2.1285500
       3974.2265       2.1366380
       3976.1686       2.1133240
       3978.1108       2.0901470
       3980.0529       2.0828850
       3981.9950       2.0681260
       3983.9373       2.0187570
       3985.8794       1.9717600
       3987.8216       1.9683340
       3989.7637       1.9682210
       3991.7059       1.9655650
       3993.6481       1.9831720
       3995.5902       2.0047630
       3997.5323       2.0117670
       3999.4746       1.9935030
       4001.4167       1.9693240
       4003.3589       1.9621880
       4005.3010       1.9644040
       4007.2432       1.9835650
       4009.1854       1.9866780
       4011.1275       1.9649710
       4013.0697       1.9722240
       4015.0118       1.9981420
       4016.9540       1.9986860
       4018.8962       2.0031940
       4020.8383       2.0025530
       4022.7804       2.0126510
       4024.7227       2.0387040
       4026.6648       2.0603330
       4028.6070       2.0611910
       4030.5491       2.0701680
       4032.4913       2.0814420
       4034.4335       2.0735730
       4036.3756       2.0744620
       4038.3178       2.1080980
       4040.2599       2.1155470
       4042.2021       2.1173810
       4044.1443       2.1433620
       4046.0864       2.1407560
       4048.0286       2.1410650
       4049.9708       2.1500620
       4051.9129       2.1423100
       4053.8551       2.1539490
       4055.7972       2.1653230
       4057.7394       2.1474490
       4059.6816       2.1471530
       4061.6237       2.1765500
       4063.5659       2.1691580
       4065.5081       2.1338670
       4067.4502       2.1095750
       4069.3924       2.1200640
       4071.3345       2.1158510
       4073.2767       2.1074700
       4075.2189       2.0852460
       4077.1610       2.0812120
       4079.1032       2.0871760
       4081.0453       2.0811570
       4082.9876       2.0716620
       4084.9297       2.0723280
       4086.8718       2.0566730
       4088.8140       2.0566110
       4090.7562       2.0538320
       4092.6983       2.0432650
       4094.6405       2.0353210
       4096.5826       2.0448240
       4098.5249       2.0521770
       4100.4670       2.0312780
       4102.4091       2.0163530
       4104.3513       1.9992520
       4106.2934       1.9699250
       4108.2357       1.9600440
       4110.1778       1.9676510
       4112.1199       1.9494720
       4114.0621       1.9315130
       4116.0043       1.9283680
       4117.9464       1.9119230
       4119.8886       1.8970160
       4121.8307       1.9203700
       4123.7730       1.9409830
       4125.7151       1.9181540
       4127.6572       1.9010520
       4129.5994       1.9188020
       4131.5415       1.9323900
       4133.4838       1.9515980
       4135.4259       1.9710280
       4137.3680       1.9844430
       4139.3102       1.9920920
       4141.2524       2.0213210
       4143.1946       2.0240510
       4145.1367       2.0224320
       4147.0788       2.0617870
       4149.0211       2.0740200
       4150.9632       2.0769440
       4152.9053       2.0923240
       4154.8475       2.0927440
       4156.7897       2.0883750
       4158.7319       2.0901370
       4160.6740       2.0834180
       4162.6161       2.0801290
       4164.5583       2.0838020
       4166.5005       2.0912290
       4168.4427       2.0851220
       4170.3848       2.0487220
       4172.3269       2.0281910
       4174.2692       2.0339010
       4176.2113       2.0401020
       4178.1534       2.0126800
       4180.0956       1.9904130
       4182.0378       1.9844860
       4183.9800       1.9696190
       4185.9221       1.9502860
       4187.8642       1.9410450
       4189.8065       1.9346660
       4191.7486       1.9260600
       4193.6908       1.8935060
       4195.6329       1.8780200
       4197.5750       1.8845730
       4199.5173       1.8865400
       4201.4594       1.8870640
       4203.4016       1.8746950
       4205.3437       1.8543430
       4207.2859       1.8511000
       4209.2281       1.8504920
       4211.1702       1.8514000
       4213.1123       1.8470980
       4215.0546       1.8520060
       4216.9967       1.8554330
       4218.9389       1.8442320
       4220.8810       1.8342160
       4222.8231       1.8259430
       4224.7654       1.8190920
       4226.7075       1.8182830
       4228.6497       1.8143470
       4230.5918       1.8153530
       4232.5340       1.8087450
       4234.4762       1.7995840
       4236.4183       1.8143850
       4238.3604       1.8143930
       4240.3027       1.8035250
       4242.2448       1.7999080
       4244.1870       1.8164720
       4246.1291       1.8206540
       4248.0713       1.8133440
       4250.0135       1.8028960
       4251.9556       1.8074620
       4253.8978       1.8502680
       4255.8399       1.8548090
       4257.7821       1.8458280
       4259.7243       1.8578050
       4261.6664       1.8594730
       4263.6086       1.8628670
       4265.5508       1.8690470
       4267.4929       1.8715680
       4269.4351       1.8807130
       4271.3772       1.8685510
       4273.3194       1.8532530
       4275.2616       1.8525210
       4277.2037       1.8281630
       4279.1459       1.8192870
       4281.0881       1.8298960
       4283.0302       1.8166180
       4284.9724       1.7977000
       4286.9145       1.7889060
       4288.8567       1.7668610
       4290.7989       1.7420360
       4292.7410       1.7296340
       4294.6832       1.7310550
       4296.6253       1.7250060
       4298.5676       1.6914350
       4300.5097       1.6597920
       4302.4518       1.6352580
       4304.3940       1.6036560
       4306.3362       1.5766930
       4308.2783       1.5627800
       4310.2205       1.5613430
       4312.1626       1.5459970
       4314.1049       1.5247180
       4316.0470       1.5300040
       4317.9891       1.5329410
       4319.9313       1.5254590
       4321.8734       1.5392780
       4323.8157       1.5375970
       4325.7578       1.5195420
       4327.6999       1.5256700
       4329.6421       1.5549920
       4331.5843       1.5810600
       4333.5264       1.5832250
       4335.4686       1.5735000
       4337.4107       1.5912240
       4339.3530       1.6184720
       4341.2951       1.6293130
       4343.2372       1.6366920
       4345.1794       1.6377220
       4347.1215       1.6435730
       4349.0638       1.6584880
       4351.0059       1.6698140
       4352.9480       1.6840830
       4354.8902       1.7097920
       4356.8324       1.7401060
       4358.7746       1.7434880
       4360.7167       1.7343030
       4362.6588       1.7447740
       4364.6011       1.7461310
       4366.5432       1.7370660
       4368.4853       1.7564630
       4370.4275       1.7811740
       4372.3697       1.7549150
       4374.3119       1.7350380
       4376.2540       1.7314310
       4378.1961       1.7350650
       4380.1383       1.7424430
       4382.0805       1.7656710
       4384.0227       1.7760520
       4385.9648       1.7681850
       4387.9069       1.7700550
       4389.8492       1.7719030
       4391.7913       1.7558930
       4393.7334       1.7518870
       4395.6756       1.7565930
       4397.6178       1.7611130
       4399.5600       1.7603840
       4401.5021       1.7567630
       4403.4442       1.7551200
       4405.3865       1.7660880
       4407.3286       1.7748830
       4409.2708       1.7869880
       4411.2129       1.7971960
       4413.1550       1.7949160
       4415.0973       1.7878480
       4417.0394       1.7849000
       4418.9816       1.7842620
       4420.9237       1.7988720
       4422.8659       1.8196030
       4424.8081       1.8190790
       4426.7502       1.8142010
       4428.6923       1.8155420
       4430.6346       1.8254400
       4432.5767       1.8291410
       4434.5189       1.8365720
       4436.4610       1.8351620
       4438.4031       1.8432800
       4440.3454       1.8683060
       4442.2875       1.8778990
       4444.2297       1.8787650
       4446.1718       1.8960380
       4448.1140       1.9029530
       4450.0562       1.9000460
       4451.9983       1.9007980
       4453.9404       1.9017380
       4455.8827       1.9085020
       4457.8248       1.9203760
       4459.7670       1.9173290
       4461.7091       1.9111380
       4463.6513       1.9069150
       4465.5935       1.9016950
       4467.5356       1.9030690
       4469.4778       1.9056900
       4471.4199       1.9134140
       4473.3621       1.9200240
       4475.3043       1.9107840
       4477.2464       1.8968690
       4479.1886       1.9023660
       4481.1308       1.8978770
       4483.0729       1.9061980
       4485.0151       1.9214840
       4486.9572       1.9126150
       4488.8994       1.9066600
       4490.8416       1.8925750
       4492.7837       1.8768280
       4494.7259       1.8748040
       4496.6681       1.8869530
       4498.6102       1.8815660
       4500.5524       1.8690130
       4502.4945       1.8617710
       4504.4367       1.8594260
       4506.3789       1.8590010
       4508.3210       1.8714930
       4510.2632       1.8587790
       4512.2053       1.8493820
       4514.1476       1.8702360
       4516.0897       1.8853820
       4518.0318       1.8773730
       4519.9740       1.8709160
       4521.9162       1.8625750
       4523.8583       1.8588860
       4525.8005       1.8664150
       4527.7426       1.8672780
       4529.6849       1.8790580
       4531.6270       1.8651630
       4533.5691       1.8521370
       4535.5113       1.8643460
       4537.4534       1.8665570
       4539.3957       1.8867130
       4541.3378       1.9050530
       4543.2799       1.8894430
       4545.2221       1.8809240
       4547.1643       1.8896800
       4549.1064       1.8933770
       4551.0486       1.8828050
       4552.9907       1.8742510
       4554.9330       1.8631650
       4556.8751       1.8584460
       4558.8172       1.8558460
       4560.7594       1.8529590
       4562.7015       1.8488480
       4564.6438       1.8393690
       4566.5859       1.8283880
       4568.5280       1.8140410
       4570.4702       1.8237220
       4572.4124       1.8242350
       4574.3546       1.8021340
       4576.2967       1.7796400
       4578.2388       1.7660130
       4580.1811       1.7666230
       4582.1232       1.7660300
       4584.0653       1.7735800
       4586.0075       1.7702390
       4587.9497       1.7599890
       4589.8919       1.7581520
       4591.8340       1.7506410
       4593.7761       1.7550930
       4595.7183       1.7484640
       4597.6605       1.7426470
       4599.6027       1.7282260
       4601.5448       1.7167500
       4603.4869       1.7212910
       4605.4292       1.7203760
       4607.3713       1.7244840
       4609.3134       1.7274700
       4611.2556       1.7133060
       4613.1978       1.6967210
       4615.1400       1.6998790
       4617.0821       1.6932260
       4619.0242       1.6759710
       4620.9665       1.6597030
       4622.9086       1.6617300
       4624.8508       1.6646180
       4626.7929       1.6430130
       4628.7350       1.6187190
       4630.6773       1.6127730
       4632.6194       1.6122470
       4634.5616       1.5953780
       4636.5037       1.5748440
       4638.4459       1.5619230
       4640.3881       1.5440890
       4642.3302       1.5378650
       4644.2723       1.5452540
       4646.2146       1.5337490
       4648.1567       1.5149160
       4650.0989       1.5097740
       4652.0410       1.5112980
       4653.9831       1.5100130
       4655.9254       1.5029190
       4657.8675       1.5060800
       4659.8097       1.5035480
       4661.7518       1.4924740
       4663.6940       1.4912570
       4665.6362       1.4944170
       4667.5783       1.5040580
       4669.5204       1.5166850
       4671.4627       1.5137430
       4673.4048       1.5179020
       4675.3470       1.5301850
       4677.2891       1.5324340
       4679.2313       1.5354360
       4681.1735       1.5395240
       4683.1156       1.5410180
       4685.0578       1.5301340
       4686.9999       1.5242540
       4688.9421       1.5332570
       4690.8843       1.5353370
       4692.8264       1.5164690
       4694.7686       1.5045870
       4696.7108       1.5019480
       4698.6529       1.4925980
       4700.5951       1.4741310
       4702.5372       1.4582110
       4704.4794       1.4684260
       4706.4216       1.4626260
       4708.3637       1.4353210
       4710.3059       1.4214140
       4712.2481       1.4114280
       4714.1902       1.4109750
       4716.1324       1.4115630
       4718.0745       1.4104140
       4720.0167       1.4050470
       4721.9589       1.3884480
       4723.9010       1.3847280
       4725.8432       1.3841880
       4727.7853       1.3768800
       4729.7276       1.3673460
       4731.6697       1.3539120
       4733.6118       1.3498460
       4735.5540       1.3525820
       4737.4962       1.3522130
       4739.4383       1.3483880
       4741.3805       1.3550980
       4743.3226       1.3647310
       4745.2648       1.3559570
       4747.2070       1.3453250
       4749.1491       1.3441710
       4751.0913       1.3563030
       4753.0334       1.3734380
       4754.9757       1.3833840
       4756.9178       1.3972670
       4758.8599       1.4125620
       4760.8021       1.4229210
       4762.7443       1.4211110
       4764.6864       1.4036280
       4766.6286       1.4000520
       4768.5707       1.4093020
       4770.5130       1.4119170
       4772.4551       1.4106740
       4774.3972       1.4132070
       4776.3394       1.4207990
       4778.2815       1.4296890
       4780.2238       1.4344030
       4782.1659       1.4318200
       4784.1080       1.4206070
       4786.0502       1.4074850
       4787.9924       1.4084100
       4789.9346       1.4035960
       4791.8767       1.3857290
       4793.8188       1.3941610
       4795.7611       1.4058200
       4797.7032       1.3799470
       4799.6453       1.3432540
       4801.5875       1.3421090
       4803.5297       1.3378280
       4805.4719       1.3448240
       4807.4140       1.3586210
       4809.3561       1.3564820
       4811.2983       1.3657050
       4813.2405       1.3572900
       4815.1827       1.3350070
       4817.1248       1.3373740
       4819.0669       1.3425240
       4821.0092       1.3414910
       4822.9513       1.3313650
       4824.8934       1.3294080
       4826.8356       1.3269070
       4828.7778       1.3182480
       4830.7200       1.3126430
       4832.6621       1.3153430
       4834.6042       1.3129850
       4836.5464       1.3108630
       4838.4886       1.3148470
       4840.4308       1.3179930
       4842.3729       1.3088900
       4844.3150       1.3136990
       4846.2573       1.3189760
       4848.1994       1.3120390
       4850.1416       1.3050520
       4852.0837       1.3005650
       4854.0259       1.3122000
       4855.9681       1.3334040
       4857.9102       1.3262800
       4859.8523       1.3144380
       4861.7946       1.3139950
       4863.7367       1.3214620
       4865.6789       1.3253860
       4867.6210       1.3348240
       4869.5631       1.3433100
       4871.5054       1.3428930
       4873.4475       1.3462820
       4875.3897       1.3616850
       4877.3318       1.3652290
       4879.2740       1.3666910
       4881.2162       1.3716170
       4883.1583       1.3935700
       4885.1004       1.4136590
       4887.0427       1.4068330
       4888.9848       1.4068440
       4890.9270       1.4081950
       4892.8691       1.4079450
       4894.8113       1.4140780
       4896.7535       1.4260550
       4898.6956       1.4277670
       4900.6378       1.4313430
       4902.5799       1.4440370
       4904.5221       1.4476020
       4906.4643       1.4443710
       4908.4064       1.4462140
       4910.3486       1.4511900
       4912.2908       1.4521970
       4914.2329       1.4459120
       4916.1751       1.4473170
       4918.1172       1.4498380
       4920.0594       1.4548730
       4922.0016       1.4510380
       4923.9437       1.4373430
       4925.8859       1.4258790
       4927.8281       1.4264390
       4929.7702       1.4261000
       4931.7124       1.4100470
       4933.6545       1.4013450
       4935.5967       1.3842590
       4937.5389       1.3680590
       4939.4810       1.3749720
       4941.4232       1.3691210
       4943.3653       1.3469090
       4945.3076       1.3175000
       4947.2497       1.3178460
       4949.1918       1.3226440
       4951.1340       1.3146370
       4953.0762       1.3032810
       4955.0183       1.3010290
       4956.9605       1.2951470
       4958.9026       1.2801160
       4960.8448       1.2803310
       4962.7870       1.2771730
       4964.7291       1.2702290
       4966.6713       1.2692260
       4968.6134       1.2732560
       4970.5557       1.2674130
       4972.4978       1.2703010
       4974.4399       1.2796880
       4976.3821       1.2908570
       4978.3243       1.2991220
       4980.2664       1.3079310
       4982.2086       1.3218990
       4984.1507       1.3301780
       4986.0930       1.3268210
       4988.0351       1.3315610
       4989.9772       1.3564170
       4991.9194       1.3803170
       4993.8615       1.3853640
       4995.8038       1.3915660
       4997.7459       1.4071880
       4999.6880       1.4100670
       5001.6302       1.4112310
       5003.5724       1.4217730
       5005.5146       1.4436140
       5007.4567       1.4448830
       5009.3988       1.4431240
       5011.3411       1.4434410
       5013.2832       1.4412730
       5015.2253       1.4579670
       5017.1675       1.4666770
       5019.1097       1.4682640
       5021.0519       1.4870440
       5022.9940       1.4900930
       5024.9361       1.4775480
       5026.8783       1.4938870
       5028.8205       1.5334930
       5030.7627       1.5442090
       5032.7048       1.5135480
       5034.6469       1.4960500
       5036.5892       1.4858680
       5038.5313       1.4766810
       5040.4734       1.4785250
       5042.4156       1.4870750
       5044.3578       1.5028960
       5046.3000       1.5056110
       5048.2421       1.4910200
       5050.1842       1.4776950
       5052.1264       1.4845950
       5054.0686       1.4947050
       5056.0108       1.5010160
       5057.9529       1.4918070
       5059.8950       1.4852760
       5061.8373       1.4867150
       5063.7794       1.4904710
       5065.7216       1.4912010
       5067.6637       1.4945020
       5069.6059       1.5030970
       5071.5481       1.4916950
       5073.4902       1.4864230
       5075.4323       1.4791220
       5077.3746       1.4821640
       5079.3167       1.4951290
       5081.2589       1.4896770
       5083.2010       1.4831110
       5085.1431       1.4926410
       5087.0854       1.4919920
       5089.0275       1.4860540
       5090.9697       1.4915460
       5092.9118       1.4949110
       5094.8540       1.4832480
       5096.7962       1.4739140
       5098.7383       1.5077880
       5100.6804       1.5097170
       5102.6227       1.4824570
       5104.5648       1.4916100
       5106.5070       1.4962530
       5108.4491       1.4822150
       5110.3913       1.4833310
       5112.3335       1.4893740
       5114.2756       1.4818640
       5116.2178       1.4740830
       5118.1599       1.4749750
       5120.1021       1.4760290
       5122.0443       1.4777240
       5123.9864       1.4750680
       5125.9286       1.4657410
       5127.8708       1.4577230
       5129.8129       1.4605190
       5131.7551       1.4679750
       5133.6972       1.4686430
       5135.6394       1.4543900
       5137.5816       1.4500060
       5139.5237       1.4481090
       5141.4659       1.4344300
       5143.4080       1.4321980
       5145.3502       1.4322900
       5147.2924       1.4365010
       5149.2345       1.4343660
       5151.1767       1.4404400
       5153.1189       1.4383970
       5155.0610       1.4372910
       5157.0032       1.4400440
       5158.9453       1.4367990
       5160.8876       1.4400890
       5162.8297       1.4326840
       5164.7718       1.4353370
       5166.7140       1.4489610
       5168.6562       1.4367640
       5170.5983       1.4324710
       5172.5405       1.4349810
       5174.4826       1.4385810
       5176.4248       1.4369960
       5178.3670       1.4319620
       5180.3091       1.4406570
       5182.2513       1.4450250
       5184.1934       1.4495990
       5186.1357       1.4520690
       5188.0778       1.4489910
       5190.0199       1.4386710
       5191.9621       1.4340550
       5193.9043       1.4294900
       5195.8464       1.4331880
       5197.7886       1.4424880
       5199.7307       1.4419640
       5201.6730       1.4364720
       5203.6151       1.4289520
       5205.5572       1.4272850
       5207.4994       1.4360250
       5209.4415       1.4363840
       5211.3838       1.4228050
       5213.3259       1.4177310
       5215.2680       1.4061890
       5217.2102       1.4181660
       5219.1524       1.4265690
       5221.0946       1.4107320
       5223.0367       1.4049010
       5224.9788       1.3872050
       5226.9211       1.3650510
       5228.8632       1.3623550
       5230.8053       1.3656480
       5232.7475       1.3565200
       5234.6897       1.3545300
       5236.6319       1.3473820
       5238.5740       1.3294520
       5240.5161       1.3176950
       5242.4583       1.3153940
       5244.4005       1.3121840
       5246.3427       1.2971400
       5248.2848       1.2923850
       5250.2269       1.2853170
       5252.1692       1.2880870
       5254.1113       1.2874290
       5256.0534       1.2652910
       5257.9956       1.2519640
       5259.9378       1.2547810
       5261.8800       1.2464950
       5263.8221       1.2448680
       5265.7642       1.2573940
       5267.7064       1.2541860
       5269.6486       1.2521350
       5271.5908       1.2480650
       5273.5329       1.2407540
       5275.4750       1.2383240
       5277.4173       1.2329830
       5279.3594       1.2371420
       5281.3016       1.2480130
       5283.2437       1.2585040
       5285.1859       1.2561710
       5287.1281       1.2531250
       5289.0702       1.2505850
       5291.0123       1.2396460
       5292.9546       1.2173810
       5294.8967       1.2374020
       5296.8389       1.2562120
       5298.7810       1.2321190
       5300.7231       1.2215610
       5302.6654       1.2335530
       5304.6075       1.2403860
       5306.5497       1.2465420
       5308.4918       1.2537860
       5310.4340       1.2472240
       5312.3762       1.2359950
       5314.3183       1.2389070
       5316.2604       1.2314100
       5318.2027       1.2274430
       5320.1448       1.2306000
       5322.0870       1.2245100
       5324.0291       1.2239980
       5325.9713       1.2305950
       5327.9135       1.2353360
       5329.8556       1.2315190
       5331.7978       1.2265960
       5333.7399       1.2314970
       5335.6821       1.2343870
       5337.6243       1.2285080
       5339.5664       1.2235570
       5341.5086       1.2109800
       5343.4508       1.2228680
       5345.3929       1.2354180
       5347.3351       1.2233740
       5349.2772       1.2030030
       5351.2194       1.2082200
       5353.1616       1.2125910
       5355.1037       1.2116150
       5357.0459       1.2204210
       5358.9880       1.2103610
       5360.9302       1.2021700
       5362.8724       1.2141620
       5364.8145       1.2149600
       5366.7567       1.2101940
       5368.6989       1.2053500
       5370.6410       1.1978310
       5372.5832       1.1942830
       5374.5253       1.1901930
       5376.4676       1.1771460
       5378.4097       1.1771130
       5380.3518       1.1924150
       5382.2940       1.1898440
       5384.2362       1.1757670
       5386.1783       1.1928800
       5388.1205       1.1945940
       5390.0626       1.1784640
       5392.0048       1.1950490
       5393.9470       1.2017760
       5395.8891       1.1860940
       5397.8313       1.1726100
       5399.7734       1.1562930
       5401.7157       1.1545410
       5403.6578       1.1531620
       5405.5999       1.1598350
       5407.5421       1.1538600
       5409.4843       1.1451780
       5411.4264       1.1445970
       5413.3686       1.1370320
       5415.3107       1.1313940
       5417.2530       1.1258710
       5419.1951       1.1238450
       5421.1372       1.1357450
       5423.0794       1.1206280
       5425.0215       1.1046120
       5426.9638       1.1193030
       5428.9059       1.1218660
       5430.8480       1.0867700
       5432.7902       1.0709370
       5434.7324       1.0751210
       5436.6746       1.0690580
       5438.6167       1.0614330
       5440.5588       1.0620790
       5442.5011       1.0612090
       5444.4432       1.0498170
       5446.3853       1.0366140
       5448.3275       1.0428780
       5450.2696       1.0405910
       5452.2119       1.0197710
       5454.1540       1.0212250
       5456.0961       1.0413880
       5458.0383       1.0406640
       5459.9805       1.0236680
       5461.9227       1.0276160
       5463.8648       1.0515640
       5465.8069       1.0504390
       5467.7492       1.0374510
       5469.6913       1.0460600
       5471.6334       1.0526050
       5473.5756       1.0437750
       5475.5178       1.0486390
       5477.4600       1.0419100
       5479.4021       1.0488700
       5481.3442       1.0570770
       5483.2864       1.0628500
       5485.2286       1.0658030
       5487.1708       1.0635680
       5489.1129       1.0779640
       5491.0550       1.0772070
       5492.9973       1.0663450
       5494.9394       1.0513920
       5496.8816       1.0521160
       5498.8237       1.0776950
       5500.7659       1.0802230
       5502.7081       1.0589010
       5504.6502       1.0674770
       5506.5923       1.0677180
       5508.5346       1.0580220
       5510.4767       1.0513260
       5512.4189       1.0550220
       5514.3610       1.0843860
       5516.3031       1.1109610
       5518.2454       1.0973420
       5520.1875       1.0726380
       5522.1297       1.0807730
       5524.0718       1.1008450
       5526.0140       1.0931850
       5527.9562       1.0633970
       5529.8983       1.0528690
       5531.8404       1.0568840
       5533.7827       1.0715600
       5535.7248       1.0818750
       5537.6670       1.0666600
       5539.6091       1.0448360
       5541.5513       1.0417130
       5543.4935       1.0672420
       5545.4356       1.0757920
       5547.3778       1.0597700
       5549.3199       1.0505790
       5551.2621       1.0598550
       5553.2043       1.0561930
       5555.1464       1.0438250
       5557.0886       1.0457020
       5559.0308       1.0590700
       5560.9729       1.0607660
       5562.9151       1.0539370
       5564.8572       1.0568240
       5566.7994       1.0520620
       5568.7416       1.0494460
       5570.6837       1.0592000
       5572.6259       1.0672690
       5574.5680       1.0741370
       5576.5102       1.0758640
       5578.4524       1.0797060
       5580.3945       1.0781310
       5582.3367       1.0801260
       5584.2789       1.0936990
       5586.2210       1.0839340
       5588.1632       1.0800450
       5590.1053       1.0576720
       5592.0476       1.0381490
       5593.9897       1.0499480
       5595.9318       1.0644590
       5597.8740       1.0563280
       5599.8162       1.0490860
       5601.7583       1.0761200
       5603.7005       1.0832790
       5605.6426       1.0723790
       5607.5848       1.0625200
       5609.5270       1.0513370
       5611.4691       1.0597920
       5613.4113       1.0696360
       5615.3534       1.0613350
       5617.2957       1.0564500
       5619.2378       1.0393020
       5621.1799       1.0242470
       5623.1221       1.0170610
       5625.0643       1.0164800
       5627.0064       1.0213920
       5628.9486       1.0139990
       5630.8907       1.0064900
       5632.8330       1.0043930
       5634.7751       1.0097530
       5636.7172       1.0309640
       5638.6594       1.0360360
       5640.6015       1.0320600
       5642.5438       1.0319060
       5644.4859       1.0203730
       5646.4280       1.0111670
       5648.3702       1.0115270
       5650.3124       1.0065410
       5652.2546      0.99034720
       5654.1967      0.97308040
       5656.1388      0.97762980
       5658.0811      0.98047590
       5660.0232      0.97884370
       5661.9653      0.99039590
       5663.9075      0.99425010
       5665.8496      0.99098650
       5667.7919       1.0015470
       5669.7340       1.0041730
       5671.6761      0.98656930
       5673.6183      0.98749740
       5675.5605       1.0088500
       5677.5027      0.99546690
       5679.4448      0.98932080
       5681.3869       1.0001600
       5683.3292       1.0038500
       5685.2713       1.0008420
       5687.2134       1.0138980
       5689.1556       1.0219370
       5691.0978       1.0214630
       5693.0400       1.0335340
       5694.9821       1.0519310
       5696.9242       1.0618520
       5698.8664       1.0677160
       5700.8086       1.0747340
       5702.7508       1.0765330
       5704.6929       1.0833160
       5706.6350       1.1020780
       5708.5773       1.0944330
       5710.5194       1.0918550
       5712.4616       1.1127990
       5714.4037       1.1320660
       5716.3459       1.1379130
       5718.2881       1.1385280
       5720.2302       1.1251300
       5722.1723       1.1298040
       5724.1146       1.1431480
       5726.0567       1.1363450
       5727.9989       1.1395820
       5729.9410       1.1310760
       5731.8831       1.1220890
       5733.8254       1.1253580
       5735.7675       1.1300240
       5737.7097       1.1287850
       5739.6518       1.1223010
       5741.5940       1.1138230
       5743.5362       1.1215000
       5745.4783       1.1254310
       5747.4204       1.1184680
       5749.3627       1.1184060
       5751.3048       1.1182520
       5753.2470       1.1156020
       5755.1891       1.1177580
       5757.1312       1.1272210
       5759.0735       1.1315360
       5761.0156       1.1257140
       5762.9578       1.0992210
       5764.8999       1.1045760
       5766.8421       1.1216920
       5768.7843       1.1130510
       5770.7264       1.1074300
       5772.6686       1.1132370
       5774.6108       1.1110500
       5776.5529       1.1127870
       5778.4951       1.1332280
       5780.4372       1.1130000
       5782.3794       1.0992830
       5784.3216       1.1093550
       5786.2637       1.1057990
       5788.2059       1.1077150
       5790.1480       1.1257120
       5792.0902       1.1256840
       5794.0324       1.1055750
       5795.9745       1.0987830
       5797.9167       1.1020390
       5799.8589       1.1068710
       5801.8010       1.1173230
       5803.7432       1.1197980
       5805.6853       1.1263430
       5807.6276       1.1287750
       5809.5697       1.1114150
       5811.5118       1.0865420
       5813.4540       1.0802140
       5815.3962       1.0935840
       5817.3383       1.0942960
       5819.2805       1.0983080
       5821.2226       1.0972980
       5823.1648       1.0833740
       5825.1070       1.0861420
       5827.0491       1.1029010
       5828.9913       1.1057050
       5830.9334       1.0994780
       5832.8757       1.0895280
       5834.8178       1.0717540
       5836.7599       1.0727090
       5838.7021       1.0808990
       5840.6443       1.0710200
       5842.5864       1.0716840
       5844.5286       1.0763910
       5846.4707       1.0680880
       5848.4130       1.0600190
       5850.3551       1.0528150
       5852.2972       1.0415890
       5854.2394       1.0519350
       5856.1815       1.0649340
       5858.1238       1.0631400
       5860.0659       1.0516860
       5862.0080       1.0448780
       5863.9502       1.0444080
       5865.8924       1.0452410
       5867.8346       1.0478000
       5869.7767       1.0417340
       5871.7188       1.0469690
       5873.6611       1.0438110
       5875.6032       1.0289510
       5877.5453       1.0252470
       5879.4875       1.0235260
       5881.4296       1.0141840
       5883.3719       1.0118730
       5885.3140       1.0250720
       5887.2561       1.0059550
       5889.1983      0.96878770
       5891.1405      0.94565730
       5893.0827      0.94582410
       5895.0248      0.94976390
       5896.9669      0.95760310
       5898.9092      0.96287860
       5900.8513      0.97233510
       5902.7934      0.99084770
       5904.7356      0.99782810
       5906.6778      0.99444470
       5908.6200      0.98469240
       5910.5621      0.97551330
       5912.5042      0.97257490
       5914.4464      0.94526950
       5916.3886      0.91976180
       5918.3308      0.91518430
       5920.2729      0.92202560
       5922.2150      0.92319230
       5924.1573      0.92176380
       5926.0994      0.94656900
       5928.0416      0.96270800
       5929.9837      0.93494130
       5931.9259      0.92391580
       5933.8681      0.95153810
       5935.8102      0.95296340
       5937.7523      0.95249200
       5939.6946      0.95822570
       5941.6367      0.96257610
       5943.5789      0.95605530
       5945.5210      0.95505620
       5947.4631      0.95684360
       5949.4054      0.96138170
       5951.3475      0.96680010
       5953.2897      0.96930100
       5955.2318      0.95268180
       5957.1740      0.94531220
       5959.1162      0.96957630
       5961.0583      0.97607680
       5963.0004      0.96912700
       5964.9427      0.96507310
       5966.8848      0.96635060
       5968.8270      0.95794580
       5970.7691      0.95828080
       5972.7112      0.96508830
       5974.6535      0.97025180
       5976.5956      0.97287000
       5978.5378      0.97116220
       5980.4799      0.96709160
       5982.4221      0.97085310
       5984.3643      0.97155260
       5986.3064      0.97110260
       5988.2486      0.97448870
       5990.1908      0.98166360
       5992.1329      0.98896760
       5994.0751      0.97549210
       5996.0172      0.96798680
       5997.9594      0.96463990
       5999.9016      0.96417460
       6001.8437      0.95297000
       6003.7859      0.94885490
       6005.7280      0.94446980
       6007.6702      0.94211140
       6009.6124      0.95306120
       6011.5545      0.96711610
       6013.4967      0.95739850
       6015.4389      0.94352670
       6017.3810      0.93936250
       6019.3232      0.94401260
       6021.2653      0.94607940
       6023.2076      0.95598730
       6025.1497      0.95826690
       6027.0918      0.94554100
       6029.0340      0.93519760
       6030.9762      0.93173070
       6032.9183      0.93511140
       6034.8605      0.94360900
       6036.8026      0.93258000
       6038.7448      0.92641560
       6040.6870      0.92766490
       6042.6291      0.92886130
       6044.5713      0.91466950
       6046.5134      0.90466140
       6048.4557      0.92525280
       6050.3978      0.93985370
       6052.3399      0.93426920
       6054.2821      0.93061020
       6056.2243      0.93250590
       6058.1664      0.92385670
       6060.1086      0.90422570
       6062.0507      0.88894910
       6063.9929      0.87399850
       6065.9351      0.86973550
       6067.8772      0.88070860
       6069.8194      0.88142970
       6071.7615      0.87183710
       6073.7038      0.86556840
       6075.6459      0.86376780
       6077.5880      0.86127970
       6079.5302      0.84560590
       6081.4724      0.83213470
       6083.4146      0.82392250
       6085.3567      0.81224530
       6087.2988      0.80579550
       6089.2411      0.80721630
       6091.1832      0.79679160
       6093.1253      0.78079240
       6095.0675      0.76803490
       6097.0096      0.76640350
       6098.9519      0.76018290
       6100.8940      0.75403790
       6102.8361      0.75180210
       6104.7783      0.74116640
       6106.7205      0.73925010
       6108.6627      0.73066530
       6110.6048      0.71320440
       6112.5469      0.71279620
       6114.4892      0.71458150
       6116.4313      0.71258830
       6118.3734      0.71134860
       6120.3156      0.71090230
       6122.2578      0.70383140
       6124.2000      0.70389180
       6126.1421      0.70232660
       6128.0842      0.69974130
       6130.0264      0.69900530
       6131.9686      0.69157370
       6133.9108      0.68885380
       6135.8529      0.69068220
       6137.7950      0.69062460
       6139.7373      0.69282870
       6141.6794      0.69611880
       6143.6216      0.70340730
       6145.5637      0.70417960
       6147.5059      0.70510690
       6149.4481      0.70867140
       6151.3902      0.71652750
       6153.3323      0.71382570
       6155.2746      0.71483400
       6157.2167      0.72082300
       6159.1589      0.72138070
       6161.1010      0.73031440
       6163.0431      0.74758740
       6164.9854      0.75443130
       6166.9275      0.76056690
       6168.8697      0.76852490
       6170.8118      0.76992210
       6172.7540      0.77029980
       6174.6962      0.76945980
       6176.6383      0.76888660
       6178.5804      0.77630690
       6180.5227      0.78615670
       6182.4648      0.78824420
       6184.4070      0.79296460
       6186.3491      0.80403270
       6188.2912      0.80831730
       6190.2335      0.81531340
       6192.1756      0.82497830
       6194.1178      0.83138730
       6196.0599      0.83733750
       6198.0021      0.84275920
       6199.9443      0.84399860
       6201.8864      0.83739570
       6203.8286      0.82829920
       6205.7708      0.83315330
       6207.7129      0.84349650
       6209.6551      0.85101110
       6211.5972      0.84994890
       6213.5394      0.85155430
       6215.4816      0.85848200
       6217.4237      0.85923850
       6219.3659      0.85492570
       6221.3080      0.85696060
       6223.2502      0.85579660
       6225.1924      0.84180050
       6227.1345      0.83567950
       6229.0767      0.85036190
       6231.0189      0.86312160
       6232.9610      0.86320400
       6234.9032      0.86443510
       6236.8453      0.86578010
       6238.7876      0.85911190
       6240.7297      0.84900500
       6242.6718      0.84270820
       6244.6140      0.84696760
       6246.5562      0.84864250
       6248.4983      0.84762400
       6250.4405      0.84883490
       6252.3826      0.84817770
       6254.3248      0.85259650
       6256.2670      0.85569040
       6258.2091      0.85455430
       6260.1513      0.85846700
       6262.0934      0.85458020
       6264.0357      0.84238350
       6265.9778      0.83157210
       6267.9199      0.82559770
       6269.8621      0.82532400
       6271.8043      0.82452370
       6273.7464      0.82885850
       6275.6886      0.82742770
       6277.6307      0.81514120
       6279.5729      0.80233430
       6281.5151      0.79707560
       6283.4572      0.79503490
       6285.3994      0.79259900
       6287.3415      0.79483820
       6289.2838      0.78435240
       6291.2259      0.76895440
       6293.1680      0.75793720
       6295.1102      0.75170840
       6297.0524      0.75149490
       6298.9946      0.74274240
       6300.9367      0.72759190
       6302.8788      0.70945100
       6304.8211      0.70592370
       6306.7632      0.70145310
       6308.7053      0.67930440
       6310.6475      0.66895310
       6312.5896      0.66037950
       6314.5319      0.64931450
       6316.4740      0.64013450
       6318.4161      0.63522740
       6320.3583      0.63900270
       6322.3005      0.63097900
       6324.2427      0.62439100
       6326.1848      0.62355610
       6328.1269      0.60829130
       6330.0692      0.59876920
       6332.0113      0.59459000
       6333.9534      0.58913890
       6335.8956      0.58823710
       6337.8378      0.59170940
       6339.7800      0.59650160
       6341.7221      0.59649070
       6343.6642      0.59383300
       6345.6064      0.59074750
       6347.5486      0.59698730
       6349.4908      0.60961640
       6351.4329      0.61970230
       6353.3750      0.62075640
       6355.3173      0.62340380
       6357.2594      0.62621630
       6359.2016      0.63038180
       6361.1437      0.64852570
       6363.0859      0.66282080
       6365.0281      0.67113440
       6366.9702      0.67983580
       6368.9123      0.68237690
       6370.8545      0.69516670
       6372.7967      0.70530070
       6374.7389      0.71079880
       6376.6810      0.71596720
       6378.6231      0.71503610
       6380.5654      0.71761470
       6382.5075      0.72189920
       6384.4497      0.72987900
       6386.3918      0.74896240
       6388.3340      0.76316780
       6390.2762      0.75999520
       6392.2183      0.75530130
       6394.1604      0.76388310
       6396.1027      0.77215070
       6398.0448      0.77127630
       6399.9870      0.76425720
       6401.9291      0.75710660
       6403.8712      0.75726640
       6405.8135      0.75962760
       6407.7556      0.77015530
       6409.6978      0.77805380
       6411.6399      0.78829490
       6413.5821      0.79735100
       6415.5243      0.79844060
       6417.4664      0.79493620
       6419.4086      0.79510580
       6421.3508      0.79294020
       6423.2929      0.78901730
       6425.2351      0.78662950
       6427.1772      0.78814250
       6429.1194      0.78757160
       6431.0616      0.78541890
       6433.0037      0.79479620
       6434.9459      0.79894200
       6436.8880      0.78786010
       6438.8302      0.78305190
       6440.7724      0.79370840
       6442.7145      0.79417790
       6444.6567      0.78696350
       6446.5989      0.78757520
       6448.5410      0.78314190
       6450.4832      0.77952630
       6452.4253      0.77948370
       6454.3676      0.77946380
       6456.3097      0.77904130
       6458.2518      0.79125000
       6460.1940      0.80132870
       6462.1362      0.79534990
       6464.0783      0.79534260
       6466.0205      0.79875360
       6467.9626      0.79547390
       6469.9048      0.79242470
       6471.8470      0.79198760
       6473.7891      0.78393480
       6475.7313      0.77497060
       6477.6734      0.77592140
       6479.6157      0.77599450
       6481.5578      0.78628490
       6483.4999      0.79033740
       6485.4421      0.78979100
       6487.3843      0.80266900
       6489.3264      0.81045230
       6491.2686      0.80760890
       6493.2107      0.80607320
       6495.1529      0.80496460
       6497.0951      0.79832680
       6499.0372      0.78767300
       6500.9794      0.77873210
       6502.9215      0.78735130
       6504.8638      0.79559980
       6506.8059      0.79130350
       6508.7480      0.79812740
       6510.6902      0.80213960
       6512.6324      0.80001470
       6514.5746      0.79558250
       6516.5167      0.79109800
       6518.4588      0.79015080
       6520.4011      0.78617680
       6522.3432      0.78068950
       6524.2853      0.77875390
       6526.2275      0.77634260
       6528.1696      0.77572140
       6530.1119      0.76995220
       6532.0540      0.76098810
       6533.9961      0.75901850
       6535.9383      0.76811970
       6537.8805      0.77343240
       6539.8227      0.76811150
       6541.7648      0.76515530
       6543.7069      0.76432510
       6545.6492      0.75427330
       6547.5913      0.74575090
       6549.5334      0.73960080
       6551.4756      0.73695900
       6553.4178      0.73109850
       6555.3600      0.72041520
       6557.3021      0.70947180
       6559.2442      0.70885280
       6561.1864      0.71079140
       6563.1286      0.70861520
       6565.0708      0.71795810
       6567.0129      0.72132050
       6568.9550      0.71564190
       6570.8973      0.71481780
       6572.8394      0.71478080
       6574.7816      0.72265310
       6576.7237      0.72072500
       6578.6659      0.71143140
       6580.6081      0.70838550
       6582.5502      0.70635170
       6584.4923      0.70296040
       6586.4345      0.69525560
       6588.3767      0.69293830
       6590.3189      0.71280360
       6592.2610      0.73522710
       6594.2031      0.74058650
       6596.1454      0.72329060
       6598.0875      0.70923780
       6600.0297      0.70906320
       6601.9718      0.71402500
       6603.9140      0.71250860
       6605.8562      0.69902100
       6607.7983      0.69460940
       6609.7404      0.70448610
       6611.6827      0.70326540
       6613.6248      0.69518870
       6615.5670      0.69062060
       6617.5091      0.68470810
       6619.4512      0.68098770
       6621.3935      0.68532130
       6623.3356      0.68677390
       6625.2778      0.68430080
       6627.2199      0.68242330
       6629.1621      0.68530550
       6631.1043      0.70112190
       6633.0464      0.70255880
       6634.9886      0.68780610
       6636.9308      0.67812490
       6638.8729      0.67238230
       6640.8151      0.67094800
       6642.7572      0.66842140
       6644.6994      0.66226620
       6646.6416      0.66299690
       6648.5837      0.66558740
       6650.5259      0.66500500
       6652.4680      0.66606100
       6654.4102      0.66163090
       6656.3524      0.66128510
       6658.2945      0.66665960
       6660.2367      0.66924810
       6662.1789      0.66655510
       6664.1210      0.65453160
       6666.0632      0.65528540
       6668.0053      0.66612850
       6669.9475      0.66272620
       6671.8897      0.65620260
       6673.8318      0.65686440
       6675.7740      0.65403070
       6677.7161      0.64599570
       6679.6583      0.64045650
       6681.6005      0.63482740
       6683.5426      0.63265950
       6685.4848      0.63581600
       6687.4270      0.63678730
       6689.3691      0.64063210
       6691.3113      0.64331910
       6693.2534      0.64109300
       6695.1957      0.64376330
       6697.1378      0.64935480
       6699.0799      0.64777900
       6701.0221      0.64668880
       6702.9643      0.64721800
       6704.9064      0.64103130
       6706.8486      0.63133130
       6708.7907      0.62542800
       6710.7329      0.62033860
       6712.6751      0.62163650
       6714.6172      0.62524550
       6716.5594      0.62106880
       6718.5015      0.61420120
       6720.4438      0.60975720
       6722.3859      0.60910560
       6724.3280      0.61169500
       6726.2702      0.61560940
       6728.2124      0.61833500
       6730.1546      0.62757000
       6732.0967      0.63261390
       6734.0388      0.63026440
       6735.9811      0.62887200
       6737.9232      0.62360980
       6739.8653      0.61263760
       6741.8075      0.61501610
       6743.7496      0.61457430
       6745.6919      0.60931080
       6747.6340      0.61058310
       6749.5761      0.60485530
       6751.5183      0.59937450
       6753.4605      0.58952500
       6755.4027      0.58227760
       6757.3448      0.58463790
       6759.2869      0.59474730
       6761.2292      0.60435920
       6763.1713      0.59706000
       6765.1134      0.58323160
       6767.0556      0.58327620
       6768.9978      0.59333900
       6770.9400      0.59620570
       6772.8821      0.59385450
       6774.8242      0.59660300
       6776.7664      0.59791920
       6778.7086      0.59343660
       6780.6508      0.58905210
       6782.5929      0.58807920
       6784.5350      0.58098180
       6786.4773      0.57848070
       6788.4194      0.57437460
       6790.3616      0.56357550
       6792.3037      0.56080800
       6794.2459      0.55622410
       6796.1881      0.55004260
       6798.1302      0.54785310
       6800.0723      0.54958450
       6802.0145      0.55113680
       6803.9567      0.55129600
       6805.8989      0.54890260
       6807.8410      0.55135650
       6809.7831      0.55977150
       6811.7254      0.56560020
       6813.6675      0.56159460
       6815.6097      0.56489320
       6817.5518      0.56457750
       6819.4940      0.56901070
       6821.4362      0.57518290
       6823.3783      0.57392050
       6825.3204      0.57581870
       6827.2627      0.57124920
       6829.2048      0.56150930
       6831.1470      0.56043880
       6833.0891      0.56761930
       6835.0312      0.56838170
       6836.9735      0.55625400
       6838.9156      0.55246940
       6840.8578      0.55405750
       6842.7999      0.54909830
       6844.7421      0.54857870
       6846.6843      0.55056790
       6848.6264      0.54634620
       6850.5686      0.54839780
       6852.5108      0.55936190
       6854.4529      0.55642160
       6856.3951      0.55110020
       6858.3372      0.55607290
       6860.2794      0.55668690
       6862.2216      0.55916940
       6864.1637      0.56329660
       6866.1059      0.55726400
       6868.0480      0.54951460
       6869.9902      0.57119210
       6871.9324      0.58869650
       6873.8745      0.56020990
       6875.8167      0.56136380
       6877.7589      0.58925420
       6879.7010      0.58338620
       6881.6432      0.57002800
       6883.5853      0.56472460
       6885.5275      0.56145960
       6887.4697      0.57094310
       6889.4118      0.58663690
       6891.3540      0.58429870
       6893.2961      0.56519550
       6895.2383      0.55742440
       6897.1805      0.55905580
       6899.1226      0.56243580
       6901.0648      0.55331770
       6903.0070      0.53953340
       6904.9491      0.54697190
       6906.8913      0.54798820
       6908.8334      0.53567870
       6910.7757      0.53628890
       6912.7178      0.54426010
       6914.6599      0.55260270
       6916.6021      0.55923780
       6918.5443      0.55257730
       6920.4864      0.54527390
       6922.4286      0.55295730
       6924.3707      0.55661170
       6926.3129      0.54540770
       6928.2551      0.53637750
       6930.1972      0.53296840
       6932.1394      0.52994110
       6934.0815      0.54097050
       6936.0238      0.54475290
       6937.9659      0.54422130
       6939.9080      0.54867900
       6941.8502      0.53679110
       6943.7924      0.52001540
       6945.7346      0.52183920
       6947.6767      0.52921220
       6949.6188      0.54061190
       6951.5611      0.54180880
       6953.5032      0.51722280
       6955.4453      0.50231430
       6957.3875      0.50263430
       6959.3296      0.50084330
       6961.2719      0.50991530
       6963.2140      0.51474890
       6965.1561      0.50274890
       6967.0983      0.49580410
       6969.0405      0.50088510
       6970.9827      0.51318590
       6972.9248      0.50534120
       6974.8669      0.49148900
       6976.8092      0.50038220
       6978.7513      0.49948080
       6980.6934      0.48476660
       6982.6356      0.48543230
       6984.5777      0.48626890
       6986.5200      0.47497300
       6988.4621      0.46865570
       6990.4042      0.47101890
       6992.3464      0.47524210
       6994.2886      0.47364260
       6996.2308      0.47263630
       6998.1729      0.47311220
       7000.1150      0.47416410
       7002.0573      0.48447210
       7003.9994      0.49711390
       7005.9416      0.50386170
       7007.8837      0.51031460
       7009.8259      0.52052830
       7011.7681      0.50762860
       7013.7102      0.49081990
       7015.6523      0.50561140
       7017.5945      0.52014340
       7019.5367      0.51629860
       7021.4789      0.51778450
       7023.4210      0.52680310
       7025.3631      0.54256560
       7027.3054      0.54924720
       7029.2475      0.53751790
       7031.1897      0.54134690
       7033.1318      0.55120550
       7035.0740      0.55400870
       7037.0162      0.56006150
       7038.9583      0.56521080
       7040.9004      0.56437240
       7042.8427      0.56290810
       7044.7848      0.56861070
       7046.7270      0.58036220
       7048.6691      0.58838270
       7050.6112      0.57662410
       7052.5535      0.56681310
       7054.4956      0.57704860
       7056.4378      0.58112160
       7058.3799      0.57757430
       7060.3221      0.59250970
       7062.2643      0.59586400
       7064.2064      0.57653160
       7066.1486      0.57375430
       7068.0908      0.57343360
       7070.0329      0.57205800
       7071.9751      0.57887760
       7073.9172      0.57398400
       7075.8594      0.56572180
       7077.8016      0.56849630
       7079.7437      0.57477250
       7081.6859      0.59390360
       7083.6280      0.61786060
       7085.5702      0.61247190
       7087.5124      0.59946990
       7089.4545      0.59766820
       7091.3967      0.60341050
       7093.3389      0.61883030
       7095.2810      0.47929060
       7097.2232      0.33441010
       7099.1653      0.51339230
       7101.1075      0.63357360
       7103.0497      0.61007840
       7104.9918      0.60441030
       7106.9340      0.59723090
       7108.8761      0.59121410
       7110.8183      0.58630530
       7112.7605      0.58743890
       7114.7026      0.58846160
       7116.6448      0.58201980
       7118.5870      0.57899950
       7120.5291      0.57557220
       7122.4713      0.57112400
       7124.4134      0.57560420
       7126.3557      0.58250240
       7128.2978      0.58652930
       7130.2399      0.58379070
       7132.1821      0.59026960
       7134.1243      0.59890270
       7136.0664      0.58474900
       7138.0086      0.57754130
       7139.9507      0.58212270
       7141.8929      0.58094160
       7143.8351      0.58488410
       7145.7772      0.59054640
       7147.7194      0.59071700
       7149.6615      0.59377090
       7151.6038      0.59526620
       7153.5459      0.59354470
       7155.4880      0.59301730
       7157.4302      0.59507870
       7159.3724      0.60586880
       7161.3146      0.59374150
       7163.2567      0.56954980
       7165.1988      0.56126540
       7167.1411      0.54846750
       7169.0832      0.53791660
       7171.0253      0.52866180
       7172.9675      0.53105370
       7174.9096      0.54307140
       7176.8519      0.53376630
       7178.7940      0.52095470
       7180.7361      0.52515040
       7182.6783      0.52144800
       7184.6205      0.50666840
       7186.5627      0.50552820
       7188.5048      0.50752570
       7190.4469      0.50279400
       7192.3892      0.50025620
       7194.3313      0.51595210
       7196.2734      0.52372380
       7198.2156      0.52030190
       7200.1577      0.51209500
       7202.1000      0.50660830
       7204.0421      0.50536490
       7205.9842      0.52800880
       7207.9264      0.55486130
       7209.8686      0.54427700
       7211.8108      0.53191960
       7213.7529      0.53297390
       7215.6950      0.54330300
       7217.6373      0.54617750
       7219.5794      0.53034380
       7221.5216      0.52992530
       7223.4637      0.52286490
       7225.4059      0.50582970
       7227.3481      0.51243550
       7229.2902      0.52131220
       7231.2323      0.50727970
       7233.1745      0.48789370
       7235.1167      0.49970210
       7237.0589      0.53341680
       7239.0010      0.52385530
       7240.9431      0.50029160
       7242.8854      0.50265560
       7244.8275      0.51142320
       7246.7697      0.51991280
       7248.7118      0.53147120
       7250.6540      0.52400310
       7252.5962      0.49802270
       7254.5383      0.48718460
       7256.4804      0.49258780
       7258.4227      0.50464730
       7260.3648      0.50588800
       7262.3070      0.49680480
       7264.2491      0.48210690
       7266.1912      0.47983290
       7268.1335      0.50234060
       7270.0756      0.50275160
       7272.0178      0.48452200
       7273.9599      0.47787330
       7275.9021      0.46700530
       7277.8443      0.47098680
       7279.7864      0.49032240
       7281.7286      0.51279160
       7283.6708      0.52841210
       7285.6129      0.52792330
       7287.5551      0.51798620
       7289.4972      0.51418580
       7291.4393      0.51311550
       7293.3816      0.51400980
       7295.3237      0.52346560
       7297.2659      0.52156760
       7299.2080      0.50827530
       7301.1502      0.49883460
       7303.0924      0.49188560
       7305.0345      0.49231550
       7306.9767      0.49262110
       7308.9189      0.48797670
       7310.8610      0.49877640
       7312.8032      0.50741680
       7314.7453      0.49632270
       7316.6875      0.48709160
       7318.6297      0.49231660
       7320.5718      0.49929150
       7322.5140      0.50398020
       7324.4561      0.51013130
       7326.3983      0.52021340
       7328.3405      0.53018430
       7330.2826      0.53417710
       7332.2248      0.53136390
       7334.1670      0.54233950
       7336.1091      0.55982320
       7338.0513      0.55434390
       7339.9934      0.54278020
       7341.9357      0.53787180
       7343.8778      0.52389330
       7345.8199      0.50378340
       7347.7621      0.49818900
       7349.7043      0.49905350
       7351.6464      0.48998550
       7353.5886      0.48983770
       7355.5307      0.50507880
       7357.4729      0.52146920
       7359.4151      0.52113010
       7361.3572      0.49835770
       7363.2994      0.48913300
       7365.2415      0.49727240
       7367.1838      0.49940820
       7369.1259      0.50380910
       7371.0680      0.51809440
       7373.0102      0.52429530
       7374.9524      0.52862970
       7376.8946      0.52195620
       7378.8367      0.50343640
       7380.7788      0.51694620
       7382.7211      0.52561530
       7384.6632      0.50858450
       7386.6053      0.49755050
       7388.5475      0.49560690
       7390.4896      0.48870310
       7392.4319      0.49013520
       7394.3740      0.48904600
       7396.3161      0.47680200
       7398.2583      0.47345620
       7400.2005      0.47614120
       7402.1427      0.47272640
       7404.0848      0.46522860
       7406.0269      0.46015570
       7407.9692      0.45237960
       7409.9113      0.45297110
       7411.8534      0.45303560
       7413.7956      0.45007240
       7415.7377      0.44804310
       7417.6800      0.44562140
       7419.6221      0.43502410
       7421.5642      0.43871850
       7423.5064      0.43695220
       7425.4486      0.42735620
       7427.3908      0.42476170
       7429.3329      0.41584280
       7431.2750      0.39751290
       7433.2173      0.38739090
       7435.1594      0.38683740
       7437.1016      0.37490210
       7439.0437      0.36351210
       7440.9859      0.35964640
       7442.9281      0.35916960
       7444.8702      0.36210330
       7446.8123      0.36779460
       7448.7545      0.36635010
       7450.6967      0.35540910
       7452.6389      0.35257520
       7454.5810      0.35198110
       7456.5231      0.33938260
       7458.4654      0.33404510
       7460.4075      0.34617860
       7462.3497      0.35408430
       7464.2918      0.35058080
       7466.2340      0.34443620
       7468.1762      0.34086590
       7470.1183      0.33964860
       7472.0604      0.33407710
       7474.0027      0.33279480
       7475.9448      0.33544470
       7477.8870      0.33485180
       7479.8291      0.33204850
       7481.7712      0.33802620
       7483.7135      0.34807720
       7485.6556      0.34583870
       7487.5978      0.34040260
       7489.5399      0.34272330
       7491.4821      0.35058930
       7493.4243      0.35951310
       7495.3664      0.36369700
       7497.3086      0.36977200
       7499.2508      0.37700550
       7501.1929      0.38246300
       7503.1351      0.39260240
       7505.0772      0.39567630
       7507.0193      0.39051940
       7508.9616      0.38885780
       7510.9037      0.39821920
       7512.8459      0.40514060
       7514.7880      0.39512260
       7516.7302      0.38348000
       7518.6724      0.38581490
       7520.6145      0.39810630
       7522.5567      0.40875360
       7524.4989      0.41162730
       7526.4410      0.40763590
       7528.3832      0.40492100
       7530.3253      0.41393120
       7532.2675      0.42379860
       7534.2097      0.42068330
       7536.1518      0.41604070
       7538.0940      0.42560450
       7540.0361      0.43470310
       7541.9783      0.43065730
       7543.9205      0.43754710
       7545.8626      0.45123770
       7547.8048      0.45725290
       7549.7470      0.46218710
       7551.6891      0.46372140
       7553.6313      0.46301100
       7555.5734      0.45955880
       7557.5157      0.46596730
       7559.4578      0.47651940
       7561.3999      0.47614840
       7563.3421      0.48964400
       7565.2843      0.49605480
       7567.2264      0.47907960
       7569.1686      0.47843180
       7571.1107      0.48867610
       7573.0529      0.48234080
       7574.9951      0.47368820
       7576.9372      0.46789580
       7578.8794      0.45619350
       7580.8215      0.45783140
       7582.7638      0.47756530
       7584.7059      0.47403830
       7586.6480      0.46322890
       7588.5902      0.47611090
       7590.5324      0.47924380
       7592.4746      0.47600360
       7594.4167      0.50397810
       7596.3588      0.52144970
       7598.3010      0.50898050
       7600.2432      0.50958290
       7602.1853      0.52606010
       7604.1275      0.51384760
       7606.0696      0.49111650
       7608.0119      0.49912850
       7609.9540      0.52067430
       7611.8961      0.53674680
       7613.8383      0.54059100
       7615.7805      0.54050010
       7617.7227      0.54862800
       7619.6648      0.54317540
       7621.6069      0.52801050
       7623.5492      0.53853570
       7625.4913      0.54464260
       7627.4334      0.52967250
       7629.3756      0.53042040
       7631.3177      0.53564030
       7633.2600      0.52161440
       7635.2021      0.52652350
       7637.1442      0.54565360
       7639.0864      0.53991200
       7641.0286      0.55299870
       7642.9708      0.56349230
       7644.9129      0.55459840
       7646.8550      0.55725150
       7648.7973      0.55216490
       7650.7394      0.56700260
       7652.6816      0.58173600
       7654.6237      0.57006320
       7656.5659      0.56553260
       7658.5081      0.57569030
       7660.4502      0.57402390
       7662.3923      0.57425860
       7664.3345      0.58326100
       7666.2767      0.58509270
       7668.2189      0.55561490
       7670.1610      0.52367120
       7672.1031      0.53007590
       7674.0454      0.54171950
       7675.9875      0.55193960
       7677.9297      0.56027940
       7679.8718      0.55285210
       7681.8140      0.55328300
       7683.7562      0.56917860
       7685.6983      0.56671090
       7687.6404      0.55927310
       7689.5827      0.58035380
       7691.5248      0.59781500
       7693.4670      0.58759890
       7695.4091      0.56497250
       7697.3512      0.55332130
       7699.2935      0.57109860
       7701.2356      0.59780400
       7703.1778      0.59208290
       7705.1199      0.58094970
       7707.0621      0.58589330
       7709.0043      0.56437990
       7710.9464      0.53466270
       7712.8886      0.53731110
       7714.8308      0.53725060
       7716.7729      0.52483410
       7718.7151      0.52341290
       7720.6572      0.51529880
       7722.5993      0.50838130
       7724.5416      0.51958810
       7726.4837      0.52636890
       7728.4259      0.53231120
       7730.3680      0.53776490
       7732.3102      0.53741320
       7734.2524      0.54405780
       7736.1945      0.54441780
       7738.1367      0.52727220
       7740.0789      0.52663250
       7742.0210      0.54452280
       7743.9632      0.55710640
       7745.9053      0.56141280
       7747.8475      0.55692980
       7749.7897      0.54801120
       7751.7318      0.53853050
       7753.6740      0.54207040
       7755.6161      0.55185360
       7757.5583      0.54822820
       7759.5005      0.52759280
       7761.4426      0.50855970
       7763.3848      0.49719920
       7765.3270      0.49054460
       7767.2691      0.48855280
       7769.2113      0.49139640
       7771.1534      0.49370710
       7773.0957      0.49198810
       7775.0378      0.50253150
       7776.9799      0.51748520
       7778.9221      0.52245830
       7780.8643      0.51791870
       7782.8064      0.51204960
       7784.7486      0.51633270
       7786.6907      0.53473530
       7788.6329      0.54819230
       7790.5751      0.53578260
       7792.5172      0.53478090
       7794.4594      0.52949690
       7796.4015      0.51386750
       7798.3438      0.51840390
       7800.2859      0.52013110
       7802.2280      0.51283150
       7804.1702      0.51118760
       7806.1124      0.49677600
       7808.0546      0.47230890
       7809.9967      0.47173400
       7811.9388      0.48182200
       7813.8810      0.49178800
       7815.8232      0.49377140
       7817.7653      0.48647170
       7819.7075      0.48615670
       7821.6496      0.48010180
       7823.5919      0.48453960
       7825.5340      0.50053440
       7827.4761      0.50570860
       7829.4183      0.50338530
       7831.3605      0.49758900
       7833.3027      0.50182180
       7835.2448      0.51534930
       7837.1869      0.52546080
       7839.1292      0.52790870
       7841.0713      0.51672840
       7843.0134      0.50711760
       7844.9556      0.51447380
       7846.8977      0.51338510
       7848.8400      0.49245190
       7850.7821      0.48101260
       7852.7242      0.48293420
       7854.6664      0.48838180
       7856.6086      0.48878470
       7858.5508      0.47870490
       7860.4929      0.47263130
       7862.4350      0.47609640
       7864.3773      0.48432940
       7866.3194      0.49120730
       7868.2616      0.48728450
       7870.2037      0.48166890
       7872.1459      0.48004730
       7874.0881      0.48258890
       7876.0302      0.49355550
       7877.9723      0.50137130
       7879.9145      0.50583250
       7881.8567      0.51517140
       7883.7989      0.51525140
       7885.7410      0.50909770
       7887.6831      0.50650990
       7889.6254      0.50372090
       7891.5675      0.50431700
       7893.5097      0.50840080
       7895.4518      0.51032480
       7897.3940      0.50334650
       7899.3362      0.49288940
       7901.2783      0.48436090
       7903.2204      0.46996710
       7905.1626      0.45995930
       7907.1048      0.46598220
       7909.0470      0.47524840
       7910.9891      0.47855450
       7912.9312      0.47503220
       7914.8735      0.46728790
       7916.8156      0.46599460
       7918.7578      0.47143910
       7920.6999      0.47301080
       7922.6421      0.47582560
       7924.5843      0.48578450
       7926.5264      0.49403880
       7928.4686      0.48932970
       7930.4108      0.48031980
       7932.3529      0.48505250
       7934.2951      0.49425520
       7936.2372      0.49400770
       7938.1793      0.49420390
       7940.1216      0.50310280
       7942.0637      0.51450700
       7944.0059      0.51469230
       7945.9480      0.50090860
       7947.8902      0.49072910
       7949.8324      0.48156480
       7951.7745      0.46072990
       7953.7167      0.44712120
       7955.6589      0.45724510
       7957.6010      0.46739190
       7959.5432      0.46444950
       7961.4853      0.46526880
       7963.4275      0.46078820
       7965.3697      0.44876080
       7967.3118      0.45155190
       7969.2540      0.45702500
       7971.1961      0.45687210
       7973.1383      0.47157000
       7975.0805      0.48151860
       7977.0226      0.47762890
       7978.9648      0.47729790
       7980.9070      0.47505550
       7982.8491      0.48171330
       7984.7913      0.49103080
       7986.7334      0.48249210
       7988.6757      0.47680470
       7990.6178      0.48751890
       7992.5599      0.49320970
       7994.5021      0.48698140
       7996.4443      0.48116420
       7998.3864      0.47532840
       8000.3286      0.47448460
       8002.2707      0.48185020
       8004.2129      0.47903650
       8006.1551      0.46388050
       8008.0972      0.45549480
       8010.0394      0.45703900
       8011.9815      0.45107270
       8013.9238      0.44321670
       8015.8659      0.44756870
       8017.8080      0.44932180
       8019.7502      0.44622500
       8021.6924      0.44643050
       8023.6346      0.44277200
       8025.5767      0.43791290
       8027.5188      0.43868480
       8029.4610      0.44238680
       8031.4032      0.45075270
       8033.3453      0.45623770
       8035.2875      0.45552340
       8037.2296      0.46193290
       8039.1719      0.47230220
       8041.1140      0.46695240
       8043.0561      0.45234260
       8044.9983      0.45596630
       8046.9405      0.47166230
       8048.8827      0.47680360
       8050.8248      0.46741740
       8052.7669      0.46168460
       8054.7092      0.46361430
       8056.6513      0.46084050
       8058.5934      0.45197600
       8060.5356      0.44068080
       8062.4777      0.44044140
       8064.4200      0.44072920
       8066.3621      0.43227370
       8068.3042      0.43273970
       8070.2464      0.43538070
       8072.1886      0.42791700
       8074.1308      0.41909990
       8076.0729      0.41870490
       8078.0150      0.42506260
       8079.9573      0.43623550
       8081.8994      0.43774590
       8083.8416      0.42949550
       8085.7837      0.42882640
       8087.7259      0.43693690
       8089.6681      0.44588700
       8091.6102      0.44930560
       8093.5523      0.44725700
       8095.4945      0.43555000
       8097.4367      0.42224490
       8099.3789      0.42144080
       8101.3210      0.42530550
       8103.2631      0.42236270
       8105.2054      0.41078660
       8107.1475      0.39859020
       8109.0897      0.39297910
       8111.0318      0.39307140
       8112.9740      0.39121770
       8114.9162      0.38622630
       8116.8583      0.38343490
       8118.8004      0.38480110
       8120.7426      0.38500820
       8122.6848      0.37816240
       8124.6270      0.37723200
       8126.5691      0.38561060
       8128.5112      0.38700780
       8130.4535      0.38394930
       8132.3956      0.38779970
       8134.3378      0.38800910
       8136.2799      0.38459300
       8138.2221      0.38787040
       8140.1643      0.39409210
       8142.1064      0.39596890
       8144.0486      0.38805140
       8145.9908      0.38267980
       8147.9329      0.37909430
       8149.8751      0.37401060
       8151.8172      0.37942290
       8153.7593      0.37736610
       8155.7016      0.35630620
       8157.6437      0.33836800
       8159.5859      0.34190380
       8161.5280      0.35470650
       8163.4702      0.35994400
       8165.4124      0.36237550
       8167.3545      0.36747110
       8169.2967      0.36983980
       8171.2389      0.36010580
       8173.1810      0.35302950
       8175.1232      0.36226600
       8177.0653      0.36985510
       8179.0075      0.37812290
       8180.9497      0.39379040
       8182.8918      0.40192130
       8184.8340      0.40191750
       8186.7761      0.40410480
       8188.7183      0.40874820
       8190.6605      0.41080980
       8192.6026      0.40718450
       8194.5448      0.40220060
       8196.4870      0.40497670
       8198.4291      0.41525720
       8200.3713      0.42586300
       8202.3134      0.42204870
       8204.2557      0.41018640
       8206.1978      0.40751250
       8208.1399      0.40654480
       8210.0821      0.40004700
       8212.0242      0.39184090
       8213.9664      0.38965130
       8215.9086      0.38691220
       8217.8507      0.37574590
       8219.7929      0.36325590
       8221.7351      0.35708570
       8223.6772      0.35522300
       8225.6194      0.36650350
       8227.5615      0.39613860
       8229.5038      0.41783760
       8231.4459      0.42848790
       8233.3880      0.43736020
       8235.3302      0.44535120
       8237.2724      0.44847580
       8239.2146      0.45404410
       8241.1567      0.46791170
       8243.0988      0.47014190
       8245.0410      0.45828920
       8246.9832      0.44273500
       8248.9253      0.43031690
       8250.8675      0.42212320
       8252.8096      0.42369490
       8254.7519      0.43492030
       8256.6940      0.44154100
       8258.6361      0.44379810
       8260.5783      0.44582780
       8262.5205      0.44806040
       8264.4627      0.45405870
       8266.4048      0.44930060
       8268.3469      0.43954960
       8270.2892      0.43705750
       8272.2313      0.44229050
       8274.1734      0.45594320
       8276.1156      0.46553970
       8278.0577      0.47295230
       8280.0000      0.48390120
