Units are: observed wavelength (Ang), observed flux (10^-15 erg/s/cm^2/Ang)
       3328.0000      0.16944590
       3329.9400      0.16081620
       3331.8800     0.090128690
       3333.8200     0.033488090
       3335.7600     0.079769020
       3337.7000     0.079405840
       3339.6400      0.13476050
       3341.5800      0.10498400
       3343.5200     0.010825820
       3345.4600     0.098391730
       3347.4000      0.15797840
       3349.3400      0.16225370
       3351.2800     0.091153870
       3353.2200     0.038101850
       3355.1600     0.037778060
       3357.1000     0.072387290
       3359.0400      0.10052570
       3360.9800     0.091129910
       3362.9200     0.098333340
       3364.8600      0.15595420
       3366.8000     0.020732170
       3368.7400     0.022688380
       3370.6800     0.040564570
       3372.6200     0.021600980
       3374.5600     0.036590230
       3376.5000     0.046273940
       3378.4400      0.10859600
       3380.3800      0.13829490
       3382.3200      0.12397210
       3384.2600      0.12185140
       3386.2000      0.16168070
       3388.1400     0.035295470
       3390.0800    -0.072065950
       3392.0200      0.11766540
       3393.9600      0.20154070
       3395.9000      0.12063590
       3397.8400      0.11538180
       3399.7800      0.16285550
       3401.7200      0.13274550
       3403.6600     0.046017560
       3405.6000      0.12762220
       3407.5400      0.12550530
       3409.4800     0.088267760
       3411.4200      0.14595170
       3413.3600      0.10244850
       3415.3000      0.16711310
       3417.2400      0.13546100
       3419.1800      0.10643850
       3421.1200      0.17187590
       3423.0600      0.13210990
       3425.0000     0.044541830
       3426.9400     0.075076380
       3428.8800     0.048496600
       3430.8200     0.059338520
       3432.7600      0.14561470
       3434.7000      0.11548990
       3436.6400      0.10678960
       3438.5800      0.20244280
       3440.5200      0.22861130
       3442.4600     0.080484750
       3444.4000     0.094188790
       3446.3400      0.11353300
       3448.2800      0.22578810
       3450.2200      0.12804390
       3452.1600     0.096601780
       3454.1000      0.10628380
       3456.0400     0.096775790
       3457.9800      0.13843280
       3459.9200      0.12949080
       3461.8600      0.18376430
       3463.8000      0.18015950
       3465.7400      0.11486330
       3467.6800      0.11447040
       3469.6200      0.16727190
       3471.5600      0.14195820
       3473.5000      0.13706650
       3475.4400      0.10772910
       3477.3800      0.10681950
       3479.3200      0.14604090
       3481.2600      0.16592530
       3483.2000     0.093682990
       3485.1400     0.092416170
       3487.0800     0.096488770
       3489.0200      0.10404290
       3490.9600      0.20897430
       3492.9000      0.19838530
       3494.8400      0.15047560
       3496.7800     0.078851520
       3498.7200     0.095908710
       3500.6600     0.097171110
       3502.6000     0.093713440
       3504.5400      0.12525350
       3506.4800      0.15197000
       3508.4200     0.085107700
       3510.3600   -0.0014067210
       3512.3000     0.025082100
       3514.2400     0.060344240
       3516.1800      0.18497260
       3518.1200      0.14601100
       3520.0600      0.18384920
       3522.0000      0.17346500
       3523.9400      0.11961060
       3525.8800      0.18446110
       3527.8200      0.11661870
       3529.7600     0.042239890
       3531.7000     0.069022820
       3533.6400      0.10327860
       3535.5800      0.12495610
       3537.5200     0.098309840
       3539.4600     0.089507090
       3541.4000      0.13936400
       3543.3400      0.18785710
       3545.2800      0.11306410
       3547.2200      0.15428660
       3549.1600      0.14273820
       3551.1000     0.097905770
       3553.0400     0.074223760
       3554.9800      0.16185520
       3556.9200      0.10743660
       3558.8600     0.069237780
       3560.8000      0.12896270
       3562.7400      0.12678690
       3564.6800      0.11220540
       3566.6200     0.092112090
       3568.5600      0.16485600
       3570.5000      0.12059590
       3572.4400     0.067327660
       3574.3800      0.15767340
       3576.3200      0.21733680
       3578.2600      0.13063910
       3580.2000      0.15366560
       3582.1400     0.097690190
       3584.0800      0.15482820
       3586.0200      0.19986100
       3587.9600      0.14932290
       3589.9000      0.14154280
       3591.8400      0.12007000
       3593.7800      0.18681870
       3595.7200      0.12063830
       3597.6600      0.16944140
       3599.6000      0.21125990
       3601.5400     0.093748840
       3603.4800     0.080796980
       3605.4200      0.14349400
       3607.3600      0.22377470
       3609.3000      0.11863310
       3611.2400      0.11705170
       3613.1800      0.12881140
       3615.1200      0.15027060
       3617.0600      0.19024460
       3619.0000      0.17605290
       3620.9400      0.13565580
       3622.8800      0.21336100
       3624.8200      0.18907060
       3626.7600      0.12545030
       3628.7000     0.081758290
       3630.6400      0.15935810
       3632.5800      0.11841050
       3634.5200      0.18314860
       3636.4600      0.18702980
       3638.4000      0.15061520
       3640.3400      0.19019100
       3642.2800     0.069068780
       3644.2200     0.099327680
       3646.1600      0.10935940
       3648.1000      0.14128290
       3650.0400      0.20049540
       3651.9800      0.22245570
       3653.9200      0.12668100
       3655.8600      0.11733750
       3657.8000      0.21356510
       3659.7400      0.18389880
       3661.6800      0.16524980
       3663.6200      0.18008970
       3665.5600      0.17169930
       3667.5000      0.16119520
       3669.4400      0.16495870
       3671.3800      0.15248380
       3673.3200      0.17693540
       3675.2600      0.23584070
       3677.2000      0.22700750
       3679.1400      0.19726850
       3681.0800      0.16051660
       3683.0200      0.18930060
       3684.9600      0.20964260
       3686.9000      0.21468410
       3688.8400      0.21502400
       3690.7800      0.18849190
       3692.7200      0.16646210
       3694.6600      0.18716200
       3696.6000      0.23678390
       3698.5400      0.26993520
       3700.4800      0.29741470
       3702.4200      0.24415160
       3704.3600      0.21078630
       3706.3000      0.16785590
       3708.2400      0.15345230
       3710.1800      0.19497140
       3712.1200      0.19521870
       3714.0600      0.20798380
       3716.0000      0.22147580
       3717.9400      0.31427400
       3719.8800      0.29604070
       3721.8200      0.25571780
       3723.7600      0.24198830
       3725.7000      0.23064390
       3727.6400      0.22230370
       3729.5800      0.20647530
       3731.5200      0.22364810
       3733.4600      0.23240440
       3735.4000      0.26811010
       3737.3400      0.17139470
       3739.2800      0.13938880
       3741.2200      0.16646070
       3743.1600     0.069212450
       3745.1000     -0.10093250
       3747.0400     -0.20005600
       3748.9800    -0.011533430
       3750.9200      0.16301360
       3752.8600      0.12594840
       3754.8000      0.13459660
       3756.7400      0.20100850
       3758.6800      0.17184970
       3760.6200      0.24011990
       3762.5600      0.21620740
       3764.5000      0.20195190
       3766.4400      0.18697040
       3768.3800      0.15197910
       3770.3200      0.19452380
       3772.2600      0.13736100
       3774.2000      0.14685210
       3776.1400      0.19334390
       3778.0800      0.18242520
       3780.0200      0.13157820
       3781.9600      0.20662790
       3783.9000      0.22007810
       3785.8400      0.14974700
       3787.7800      0.14987660
       3789.7200      0.12928250
       3791.6600      0.17153540
       3793.6000      0.19727240
       3795.5400      0.17229170
       3797.4800      0.17592580
       3799.4200      0.14846990
       3801.3600      0.12757670
       3803.3000      0.13646720
       3805.2400      0.13839160
       3807.1800      0.12202830
       3809.1200      0.15269030
       3811.0600      0.19389610
       3813.0000      0.11652000
       3814.9400      0.13720500
       3816.8800      0.10461260
       3818.8200     0.075041140
       3820.7600     0.085866500
       3822.7000     0.075923480
       3824.6400     0.093913420
       3826.5800      0.12429470
       3828.5200      0.12124490
       3830.4600     0.093107410
       3832.4000     0.096619080
       3834.3400     0.098391470
       3836.2800      0.10514950
       3838.2200      0.11901460
       3840.1600     0.093548580
       3842.1000     0.092201370
       3844.0400      0.13659700
       3845.9800      0.12826100
       3847.9200      0.10242030
       3849.8600      0.13388340
       3851.8000      0.14822820
       3853.7400      0.13634910
       3855.6800      0.15267400
       3857.6200      0.17616170
       3859.5600      0.13398510
       3861.5000      0.13202640
       3863.4400      0.16832890
       3865.3800      0.16715970
       3867.3200      0.18671070
       3869.2600      0.17468100
       3871.2000      0.20565410
       3873.1400      0.23906390
       3875.0800      0.21236380
       3877.0200      0.20829620
       3878.9600      0.20783160
       3880.9000      0.24520200
       3882.8400      0.27115560
       3884.7800      0.25656280
       3886.7200      0.24191230
       3888.6600      0.26185240
       3890.6000      0.26760650
       3892.5400      0.26215530
       3894.4800      0.30101250
       3896.4200      0.32333740
       3898.3600      0.33373410
       3900.3000      0.34240640
       3902.2400      0.37045820
       3904.1800      0.33617740
       3906.1200      0.31944000
       3908.0600      0.36851420
       3910.0000      0.35816330
       3911.9400      0.32660390
       3913.8800      0.37594210
       3915.8200      0.36343110
       3917.7599      0.38395860
       3919.7000      0.36364240
       3921.6400      0.38425650
       3923.5800      0.43745510
       3925.5200      0.46672640
       3927.4600      0.41927390
       3929.4000      0.42170070
       3931.3400      0.48888420
       3933.2800      0.45389550
       3935.2200      0.45287240
       3937.1600      0.49678420
       3939.1000      0.47216310
       3941.0400      0.50695510
       3942.9800      0.47939000
       3944.9200      0.48519010
       3946.8600      0.48465370
       3948.8000      0.50015870
       3950.7400      0.53338310
       3952.6800      0.49639030
       3954.6200      0.51021310
       3956.5600      0.51950210
       3958.5000      0.53658350
       3960.4400      0.51934060
       3962.3800      0.50713710
       3964.3200      0.50056800
       3966.2600      0.54112370
       3968.2000      0.58967300
       3970.1400      0.58964190
       3972.0800      0.57843450
       3974.0200      0.60873720
       3975.9600      0.62112130
       3977.9000      0.59622480
       3979.8400      0.60298810
       3981.7800      0.59671510
       3983.7200      0.55422580
       3985.6600      0.48081890
       3987.6000      0.50584760
       3989.5400      0.49146630
       3991.4800      0.52650650
       3993.4200      0.53782120
       3995.3600      0.55463250
       3997.3000      0.57974180
       3999.2400      0.56952410
       4001.1800      0.54723730
       4003.1200      0.52734270
       4005.0600      0.54711630
       4007.0000      0.58947930
       4008.9400      0.53385750
       4010.8800      0.51950690
       4012.8200      0.57104210
       4014.7600      0.52243150
       4016.7000      0.48971300
       4018.6400      0.54806260
       4020.5800      0.55571230
       4022.5200      0.55798130
       4024.4600      0.54196230
       4026.4000      0.53624460
       4028.3400      0.51943810
       4030.2800      0.50380830
       4032.2200      0.56039370
       4034.1600      0.52102340
       4036.1000      0.47432290
       4038.0400      0.49064960
       4039.9800      0.51300870
       4041.9200      0.52664160
       4043.8600      0.52637400
       4045.8000      0.54990020
       4047.7400      0.54804170
       4049.6800      0.51926930
       4051.6200      0.51558940
       4053.5600      0.51224340
       4055.5000      0.48256900
       4057.4400      0.49000160
       4059.3800      0.50099490
       4061.3200      0.49559260
       4063.2600      0.46839720
       4065.2000      0.45011480
       4067.1400      0.48014260
       4069.0800      0.49526800
       4071.0200      0.50551150
       4072.9600      0.48102370
       4074.9000      0.47530370
       4076.8400      0.50043770
       4078.7800      0.47937110
       4080.7200      0.43534530
       4082.6600      0.45010230
       4084.6000      0.49413770
       4086.5400      0.50504460
       4088.4800      0.47632690
       4090.4200      0.44956330
       4092.3600      0.44268440
       4094.3000      0.42247850
       4096.2400      0.43260800
       4098.1800      0.43430980
       4100.1200      0.39555330
       4102.0600      0.37626900
       4104.0000      0.40605900
       4105.9400      0.41993210
       4107.8800      0.39798560
       4109.8200      0.38466660
       4111.7600      0.39051720
       4113.7000      0.40644620
       4115.6400      0.39664140
       4117.5800      0.39073640
       4119.5200      0.36589760
       4121.4600      0.31647510
       4123.4000      0.33159370
       4125.3400      0.36414150
       4127.2800      0.34675310
       4129.2200      0.33469900
       4131.1600      0.35552010
       4133.1000      0.35669820
       4135.0400      0.31831240
       4136.9800      0.31518210
       4138.9200      0.31736370
       4140.8600      0.31477420
       4142.8000      0.33001130
       4144.7400      0.32147490
       4146.6800      0.32648130
       4148.6200      0.30521310
       4150.5600      0.26237500
       4152.5000      0.28015280
       4154.4400      0.31817370
       4156.3800      0.25734450
       4158.3200      0.22890080
       4160.2600      0.26565260
       4162.2000      0.25479130
       4164.1400      0.22468680
       4166.0800      0.22338090
       4168.0200      0.22855870
       4169.9600      0.24222570
       4171.9000      0.23894380
       4173.8400      0.21477250
       4175.7800      0.21653660
       4177.7200      0.23202210
       4179.6600      0.26690420
       4181.6000      0.25741220
       4183.5400      0.21477520
       4185.4800      0.22791250
       4187.4200      0.23510150
       4189.3600      0.23863280
       4191.3000      0.28146430
       4193.2400      0.29336630
       4195.1800      0.26173520
       4197.1200      0.25309210
       4199.0600      0.26604570
       4201.0000      0.25061880
       4202.9400      0.24021770
       4204.8800      0.26241620
       4206.8200      0.26970280
       4208.7600      0.25787660
       4210.7000      0.24312010
       4212.6400      0.27077580
       4214.5800      0.27477260
       4216.5200      0.26220570
       4218.4600      0.27961980
       4220.4000      0.27513570
       4222.3400      0.26370560
       4224.2800      0.26605400
       4226.2200      0.28047800
       4228.1600      0.30587690
       4230.1000      0.27707110
       4232.0400      0.24193090
       4233.9800      0.28195420
       4235.9200      0.31350050
       4237.8600      0.31032390
       4239.8000      0.30975320
       4241.7400      0.32281410
       4243.6800      0.32936680
       4245.6200      0.31223800
       4247.5600      0.28825990
       4249.5000      0.28373810
       4251.4400      0.27490500
       4253.3800      0.29150250
       4255.3200      0.28659350
       4257.2600      0.26694320
       4259.2000      0.28752600
       4261.1400      0.28436230
       4263.0800      0.27905240
       4265.0200      0.30003120
       4266.9600      0.27958260
       4268.9000      0.27306570
       4270.8400      0.30339110
       4272.7800      0.30742950
       4274.7200      0.30989960
       4276.6600      0.29584190
       4278.6000      0.27419200
       4280.5400      0.29414100
       4282.4800      0.31087950
       4284.4200      0.30795740
       4286.3600      0.29023140
       4288.3000      0.30880310
       4290.2400      0.32382660
       4292.1800      0.26941530
       4294.1200      0.24974380
       4296.0600      0.30371480
       4298.0000      0.33562130
       4299.9400      0.31482410
       4301.8800      0.29051950
       4303.8200      0.28906130
       4305.7600      0.29654590
       4307.7000      0.29460900
       4309.6400      0.32204840
       4311.5800      0.33840360
       4313.5200      0.30117640
       4315.4600      0.31194490
       4317.4000      0.32520800
       4319.3400      0.33232370
       4321.2800      0.29456930
       4323.2200      0.27351990
       4325.1600      0.30198440
       4327.1000      0.33764170
       4329.0400      0.33384790
       4330.9800      0.32702370
       4332.9200      0.30379420
       4334.8600      0.29373540
       4336.8000      0.32295810
       4338.7400      0.29851880
       4340.6800      0.28605850
       4342.6200      0.34363890
       4344.5600      0.36887360
       4346.5000      0.32960370
       4348.4400      0.31930360
       4350.3800      0.31313260
       4352.3200      0.31557180
       4354.2600      0.35904930
       4356.2000      0.36219940
       4358.1400      0.33939740
       4360.0800      0.29271080
       4362.0200      0.26316100
       4363.9600      0.30902360
       4365.9000      0.36005660
       4367.8400      0.35194370
       4369.7800      0.32102130
       4371.7200      0.33844180
       4373.6600      0.35291740
       4375.6000      0.34937510
       4377.5400      0.36468940
       4379.4800      0.37416680
       4381.4200      0.37139730
       4383.3600      0.34350500
       4385.3000      0.32994700
       4387.2400      0.32277420
       4389.1800      0.32350780
       4391.1200      0.32760050
       4393.0600      0.33082370
       4395.0000      0.34180020
       4396.9400      0.33156550
       4398.8800      0.30775980
       4400.8200      0.30102530
       4402.7600      0.31951700
       4404.7000      0.30987290
       4406.6400      0.28421040
       4408.5800      0.30211980
       4410.5200      0.30709900
       4412.4600      0.29398620
       4414.4000      0.28066430
       4416.3400      0.30196440
       4418.2800      0.33064520
       4420.2200      0.30922380
       4422.1600      0.28023490
       4424.1000      0.26070160
       4426.0400      0.26278050
       4427.9800      0.28956820
       4429.9200      0.32133570
       4431.8600      0.28111800
       4433.8000      0.26709400
       4435.7400      0.32037370
       4437.6800      0.32241520
       4439.6200      0.28269300
       4441.5600      0.30245810
       4443.5000      0.31735580
       4445.4400      0.30856170
       4447.3800      0.31597590
       4449.3200      0.30815760
       4451.2600      0.30381750
       4453.2000      0.31370050
       4455.1400      0.33390260
       4457.0800      0.34373290
       4459.0200      0.34788260
       4460.9600      0.34132230
       4462.9000      0.33525240
       4464.8400      0.34153850
       4466.7800      0.31599900
       4468.7200      0.35165700
       4470.6600      0.36856100
       4472.6000      0.36420210
       4474.5400      0.38730740
       4476.4800      0.41560450
       4478.4200      0.39843330
       4480.3600      0.38230790
       4482.3000      0.40317010
       4484.2400      0.40425630
       4486.1800      0.43709010
       4488.1200      0.44081440
       4490.0600      0.42985620
       4492.0000      0.44062680
       4493.9400      0.48291910
       4495.8800      0.45355070
       4497.8200      0.47989600
       4499.7600      0.51299710
       4501.7000      0.52171150
       4503.6400      0.56401280
       4505.5800      0.53401070
       4507.5200      0.55111320
       4509.4600      0.55902470
       4511.4000      0.50225540
       4513.3400      0.51587660
       4515.2800      0.53759960
       4517.2200      0.54033490
       4519.1600      0.53943620
       4521.1000      0.58365630
       4523.0400      0.55748030
       4524.9800      0.60807190
       4526.9200      0.64257640
       4528.8600      0.59398510
       4530.8000      0.60783900
       4532.7400      0.65947440
       4534.6800      0.66131790
       4536.6200      0.63490330
       4538.5600      0.67194840
       4540.5000      0.71054730
       4542.4400      0.69463610
       4544.3800      0.72311960
       4546.3200      0.72888880
       4548.2600      0.73333170
       4550.2000      0.77727990
       4552.1400      0.75197640
       4554.0800      0.76340490
       4556.0200      0.73720190
       4557.9600      0.73172840
       4559.9000      0.79468800
       4561.8400      0.82532020
       4563.7800      0.83419660
       4565.7200      0.83183660
       4567.6600      0.83743590
       4569.6000      0.84706040
       4571.5400      0.85208480
       4573.4800      0.78589730
       4575.4200      0.84805630
       4577.3600      0.91611270
       4579.3000      0.90580650
       4581.2400      0.85284940
       4583.1800      0.87543590
       4585.1200      0.95450270
       4587.0600      0.97483610
       4589.0000      0.99048540
       4590.9400      0.98788260
       4592.8800       1.0221130
       4594.8201       1.0011610
       4596.7600       1.0066680
       4598.7000      0.96075330
       4600.6400       1.0022970
       4602.5800       1.0233030
       4604.5200      0.98505550
       4606.4600       1.0127810
       4608.4000       1.0591470
       4610.3400       1.0224390
       4612.2800       1.0031390
       4614.2200      0.95648480
       4616.1600      0.97831240
       4618.1000      0.99550070
       4620.0400       1.0296360
       4621.9800       1.0386150
       4623.9200       1.0042420
       4625.8600       1.0134200
       4627.8000       1.0208980
       4629.7400       1.0283090
       4631.6800       1.0346560
       4633.6200       1.0373110
       4635.5600       1.0716450
       4637.5000       1.0493240
       4639.4400       1.0141540
       4641.3800       1.0605610
       4643.3200       1.0622450
       4645.2600       1.0378950
       4647.2000       1.0209270
       4649.1400       1.0262370
       4651.0800      0.98495910
       4653.0200      0.97427710
       4654.9600      0.97370800
       4656.9000      0.99116830
       4658.8400      0.98127150
       4660.7800      0.95413710
       4662.7200      0.95493890
       4664.6600      0.97992590
       4666.6000       1.0042120
       4668.5400       1.0078120
       4670.4800      0.95721760
       4672.4200      0.94440260
       4674.3600      0.93559910
       4676.3000      0.88249880
       4678.2400      0.87532960
       4680.1800      0.86295700
       4682.1200      0.86763380
       4684.0600      0.88762660
       4686.0000      0.83898860
       4687.9400      0.85607800
       4689.8800      0.81064990
       4691.8200      0.80916670
       4693.7600      0.84506390
       4695.7000      0.83816420
       4697.6400      0.80667510
       4699.5800      0.79958230
       4701.5200      0.78335180
       4703.4600      0.75939980
       4705.4000      0.75819220
       4707.3400      0.72093610
       4709.2800      0.72964560
       4711.2200      0.70179130
       4713.1600      0.67206970
       4715.1000      0.67452630
       4717.0400      0.69623290
       4718.9800      0.71584800
       4720.9200      0.70138670
       4722.8600      0.66152760
       4724.8000      0.67652670
       4726.7400      0.69244840
       4728.6800      0.67593360
       4730.6200      0.68305190
       4732.5600      0.68046320
       4734.5000      0.65577740
       4736.4400      0.63288770
       4738.3800      0.67993240
       4740.3200      0.65631330
       4742.2600      0.67222480
       4744.2000      0.69540080
       4746.1400      0.67140610
       4748.0800      0.66997590
       4750.0200      0.67583360
       4751.9600      0.66445570
       4753.9000      0.63701080
       4755.8400      0.64399510
       4757.7800      0.64538570
       4759.7200      0.64466670
       4761.6600      0.65001420
       4763.6000      0.64980270
       4765.5400      0.63759020
       4767.4800      0.63041730
       4769.4200      0.64570460
       4771.3600      0.65406280
       4773.3000      0.63592050
       4775.2400      0.61648320
       4777.1800      0.59660600
       4779.1200      0.58779190
       4781.0600      0.57951340
       4783.0000      0.55821660
       4784.9400      0.54237250
       4786.8800      0.55217830
       4788.8200      0.57671990
       4790.7600      0.57375320
       4792.7000      0.56218400
       4794.6400      0.54604360
       4796.5800      0.55570190
       4798.5200      0.56490480
       4800.4600      0.58337830
       4802.4000      0.55640000
       4804.3400      0.51069480
       4806.2800      0.51935830
       4808.2200      0.53970290
       4810.1600      0.52982730
       4812.1000      0.52214850
       4814.0400      0.52947390
       4815.9800      0.53567700
       4817.9200      0.57476740
       4819.8600      0.56211760
       4821.8000      0.53793000
       4823.7400      0.55219050
       4825.6800      0.55222930
       4827.6200      0.52527590
       4829.5600      0.56297240
       4831.5000      0.57623090
       4833.4400      0.58029250
       4835.3800      0.56601780
       4837.3200      0.59585370
       4839.2600      0.60695100
       4841.2000      0.58627050
       4843.1400      0.60893470
       4845.0800      0.64192870
       4847.0200      0.63160600
       4848.9600      0.61911960
       4850.9000      0.61241640
       4852.8400      0.61886140
       4854.7800      0.62254290
       4856.7200      0.60487460
       4858.6600      0.59365900
       4860.6000      0.61036910
       4862.5400      0.58470620
       4864.4800      0.57673290
       4866.4200      0.56744740
       4868.3600      0.53813360
       4870.3000      0.59548500
       4872.2400      0.58598800
       4874.1800      0.54342410
       4876.1200      0.54439750
       4878.0600      0.57944690
       4880.0000      0.55637030
       4881.9400      0.42496650
       4883.8800      0.40440030
       4885.8200      0.40940110
       4887.7600      0.40251320
       4889.7000      0.48270160
       4891.6400      0.60127780
       4893.5800      0.59286430
       4895.5200      0.58809750
       4897.4600      0.59663920
       4899.4000      0.61880830
       4901.3400      0.65614910
       4903.2800      0.63980970
       4905.2200      0.63719280
       4907.1600      0.64049880
       4909.1000      0.62076770
       4911.0400      0.63079330
       4912.9800      0.63934090
       4914.9200      0.65191790
       4916.8600      0.65545240
       4918.8000      0.62747580
       4920.7400      0.64860520
       4922.6800      0.67339360
       4924.6200      0.69653280
       4926.5600      0.67449120
       4928.5000      0.67793980
       4930.4400      0.71033390
       4932.3800      0.71229730
       4934.3200      0.72757190
       4936.2600      0.69775350
       4938.2000      0.73175290
       4940.1400      0.74710760
       4942.0800      0.74274230
       4944.0200      0.76836400
       4945.9600      0.79534780
       4947.9000      0.79254450
       4949.8400      0.76343800
       4951.7800      0.84058810
       4953.7200      0.82500120
       4955.6600      0.83154950
       4957.6000      0.85295250
       4959.5400      0.84769530
       4961.4800      0.86438860
       4963.4200      0.88973690
       4965.3600      0.86248450
       4967.3000      0.86657800
       4969.2400      0.86627290
       4971.1800      0.84490810
       4973.1200      0.85271900
       4975.0600      0.90748630
       4977.0000      0.86748080
       4978.9400      0.84823470
       4980.8800      0.82526780
       4982.8200      0.87146060
       4984.7600      0.88192700
       4986.7000      0.84983060
       4988.6400      0.87680970
       4990.5800      0.88063940
       4992.5200      0.85094010
       4994.4600      0.83591690
       4996.4000      0.80653200
       4998.3400      0.80970410
       5000.2800      0.81487660
       5002.2200      0.81676560
       5004.1600      0.76804440
       5006.1000      0.73210220
       5008.0400      0.73296890
       5009.9800      0.70444070
       5011.9200      0.67970330
       5013.8600      0.65870560
       5015.8000      0.63200370
       5017.7400      0.62797080
       5019.6800      0.64497670
       5021.6200      0.64837870
       5023.5600      0.58814780
       5025.5000      0.53628700
       5027.4400      0.52547770
       5029.3800      0.46442170
       5031.3200      0.40285780
       5033.2600      0.43987490
       5035.2000      0.47867210
       5037.1400      0.51878970
       5039.0800      0.51803020
       5041.0200      0.49435980
       5042.9600      0.54877950
       5044.9000      0.53072210
       5046.8400      0.50707110
       5048.7800      0.47383830
       5050.7200      0.48119780
       5052.6600      0.49451780
       5054.6000      0.52105190
       5056.5400      0.51217980
       5058.4800      0.51147620
       5060.4200      0.47425790
       5062.3600      0.48858380
       5064.3000      0.47091230
       5066.2400      0.49692070
       5068.1800      0.48993890
       5070.1200      0.45649940
       5072.0600      0.44575710
       5074.0000      0.45971430
       5075.9400      0.47478490
       5077.8800      0.49398140
       5079.8200      0.51988800
       5081.7600      0.48998990
       5083.7000      0.49142200
       5085.6400      0.51968000
       5087.5800      0.47354460
       5089.5200      0.46768610
       5091.4600      0.46213360
       5093.4000      0.47414000
       5095.3400      0.52446000
       5097.2800      0.55248000
       5099.2200      0.56680970
       5101.1600      0.50817100
       5103.1000      0.53273460
       5105.0400      0.59289940
       5106.9800      0.55021320
       5108.9200      0.53639430
       5110.8600      0.58462740
       5112.8000      0.60221860
       5114.7400      0.57524400
       5116.6800      0.56369200
       5118.6200      0.60602390
       5120.5600      0.59136100
       5122.5000      0.62300480
       5124.4400      0.86302620
       5126.3800      0.92578050
       5128.3200      0.68871570
       5130.2600      0.61112270
       5132.2000      0.65881910
       5134.1400      0.65036540
       5136.0800      0.62139960
       5138.0200      0.63823330
       5139.9600      0.64017490
       5141.9000      0.66432130
       5143.8400      0.69029840
       5145.7800      0.68357880
       5147.7200      0.68372570
       5149.6600      0.70194820
       5151.6000      0.70334460
       5153.5400      0.71309760
       5155.4800      0.72613410
       5157.4200      0.71337060
       5159.3600      0.70190410
       5161.3000      0.68319060
       5163.2400      0.68634740
       5165.1800      0.69083610
       5167.1200      0.67208410
       5169.0600      0.70129440
       5171.0000      0.71615040
       5172.9400      0.73138120
       5174.8800      0.74684580
       5176.8200      0.74478350
       5178.7600      0.73970630
       5180.7000      0.73292180
       5182.6400      0.73719910
       5184.5800      0.74206890
       5186.5200      0.72276720
       5188.4600      0.77359570
       5190.4000      0.77192810
       5192.3400      0.74815460
       5194.2800      0.73753390
       5196.2200      0.75888190
       5198.1600      0.75727730
       5200.1000      0.75241140
       5202.0400      0.74236330
       5203.9800      0.72007000
       5205.9200      0.73991920
       5207.8600      0.77133540
       5209.8000      0.76614650
       5211.7400      0.73811110
       5213.6800      0.77504530
       5215.6200      0.80835980
       5217.5600      0.78523340
       5219.5000      0.80695260
       5221.4400      0.82374890
       5223.3800      0.80888210
       5225.3200      0.81167860
       5227.2600      0.79445570
       5229.2000      0.81337650
       5231.1400      0.88252090
       5233.0800      0.89739200
       5235.0200      0.86186190
       5236.9600      0.82636150
       5238.9000      0.85151760
       5240.8400      0.90335770
       5242.7800      0.92067880
       5244.7200      0.91953330
       5246.6600      0.92291410
       5248.6000      0.90996140
       5250.5400      0.90903880
       5252.4800      0.93787000
       5254.4200      0.95822420
       5256.3600      0.95587240
       5258.3000      0.93210250
       5260.2400      0.91645600
       5262.1800      0.92534970
       5264.1200      0.95356520
       5266.0600      0.96261100
       5268.0000      0.96274630
       5269.9400      0.98602340
       5271.8801      0.97252250
       5273.8200      0.98495410
       5275.7600       1.0061070
       5277.7000       1.0083320
       5279.6400       1.0128640
       5281.5800       1.0041450
       5283.5200       1.0039610
       5285.4600       1.0091510
       5287.4000       1.0366270
       5289.3400       1.0651890
       5291.2800       1.0754440
       5293.2200       1.0711280
       5295.1600       1.0559710
       5297.1000       1.0623890
       5299.0400       1.0727730
       5300.9800       1.0925940
       5302.9200       1.0909760
       5304.8600       1.0775160
       5306.8000       1.0946600
       5308.7400       1.1015820
       5310.6800       1.1279130
       5312.6200       1.1392200
       5314.5600       1.1100220
       5316.5000       1.0918580
       5318.4400       1.1170930
       5320.3800       1.1651900
       5322.3200       1.1575450
       5324.2600       1.1252680
       5326.2000       1.1164200
       5328.1400       1.1168930
       5330.0800       1.1458660
       5332.0200       1.2030260
       5333.9600       1.1991960
       5335.9000       1.1686350
       5337.8400       1.1744330
       5339.7800       1.2011420
       5341.7200       1.2100850
       5343.6600       1.2359120
       5345.6000       1.2590210
       5347.5400       1.1951920
       5349.4800       1.1411700
       5351.4200       1.2047310
       5353.3600       1.2426070
       5355.3000       1.2225870
       5357.2400       1.2351560
       5359.1800       1.2395740
       5361.1200       1.2125460
       5363.0600       1.2028400
       5365.0000       1.2180560
       5366.9400       1.2016510
       5368.8800       1.1940730
       5370.8200       1.2139230
       5372.7600       1.1911460
       5374.7000       1.1942380
       5376.6400       1.2178620
       5378.5800       1.2113830
       5380.5200       1.1884090
       5382.4599       1.1843280
       5384.4000       1.1957960
       5386.3400       1.1856940
       5388.2800       1.2062110
       5390.2200       1.1967830
       5392.1600       1.1606550
       5394.1000       1.1714460
       5396.0400       1.2029940
       5397.9800       1.1503420
       5399.9200       1.1249420
       5401.8600       1.1492730
       5403.8000       1.1528320
       5405.7400       1.1397610
       5407.6800       1.1204070
       5409.6200       1.1206310
       5411.5600       1.1218600
       5413.5000       1.1036050
       5415.4400       1.1065290
       5417.3800       1.1072210
       5419.3200       1.0910660
       5421.2600       1.0797980
       5423.2000       1.0616680
       5425.1400       1.0402280
       5427.0800       1.0245270
       5429.0200       1.0269590
       5430.9600       1.0495380
       5432.9000       1.0611470
       5434.8400       1.0365610
       5436.7800       1.0182810
       5438.7200       1.0409910
       5440.6600       1.0408720
       5442.6000       1.0139040
       5444.5400       1.0447920
       5446.4800       1.0447220
       5448.4200      0.97726490
       5450.3600      0.98230050
       5452.3000       1.0362710
       5454.2400       1.0579680
       5456.1800       1.0269870
       5458.1200       1.0107670
       5460.0600       1.0502770
       5462.0000       1.0400070
       5463.9400       1.0180550
       5465.8800       1.0332760
       5467.8200       1.0668000
       5469.7600       1.1260110
       5471.7000       1.1594630
       5473.6400       1.1924610
       5475.5800       1.2327190
       5477.5200       1.2576120
       5479.4600       1.2666900
       5481.4000       1.2727830
       5483.3400       1.2890230
       5485.2800       1.3052290
       5487.2200       1.3131110
       5489.1600       1.4008920
       5491.1000       1.4323350
       5493.0400       1.4119090
       5494.9800       1.4472180
       5496.9200       1.4673730
       5498.8600       1.5003810
       5500.8000       1.5447430
       5502.7400       1.5554710
       5504.6800       1.5794130
       5506.6200       1.5932640
       5508.5600       1.5794480
       5510.5000       1.5976180
       5512.4400       1.6383360
       5514.3800       1.6619010
       5516.3200       1.6928110
       5518.2600       1.7283310
       5520.2000       1.6970110
       5522.1400       1.6737510
       5524.0800       1.6566990
       5526.0200       1.6575470
       5527.9600       1.6733440
       5529.9000       1.6478200
       5531.8400       1.6510320
       5533.7800       1.6818240
       5535.7200       1.6795010
       5537.6600       1.6492280
       5539.6000       1.6348330
       5541.5400       1.6409170
       5543.4800       1.6225940
       5545.4200       1.5780200
       5547.3600       1.5703780
       5549.3000       1.5694280
       5551.2400       1.5318100
       5553.1800       1.4977360
       5555.1200       1.4993260
       5557.0600       1.5143640
       5559.0000       1.4782640
       5560.9400       1.4163950
       5562.8800       1.3838980
       5564.8200       1.3476100
       5566.7600       1.3171610
       5568.7000       1.3421690
       5570.6400       1.3452730
       5572.5800       1.2656120
       5574.5200       1.2315090
       5576.4600       1.2185780
       5578.4000       1.1799370
       5580.3400       1.1627330
       5582.2800       1.1450340
       5584.2200       1.1371410
       5586.1600       1.1188370
       5588.1000       1.1126620
       5590.0400       1.1148180
       5591.9800       1.0885920
       5593.9200       1.0473970
       5595.8600       1.0638600
       5597.8000       1.1006840
       5599.7400       1.0798470
       5601.6800       1.0918730
       5603.6200       1.1468470
       5605.5600       1.1322560
       5607.5000       1.1143870
       5609.4400       1.1192990
       5611.3800       1.1395700
       5613.3200       1.1933400
       5615.2600       1.1711400
       5617.2000       1.1608060
       5619.1400       1.2112310
       5621.0800       1.2067640
       5623.0200       1.2310210
       5624.9600       1.2496440
       5626.9000       1.2600840
       5628.8400       1.2832540
       5630.7800       1.2909150
       5632.7200       1.3041430
       5634.6600       1.3162590
       5636.6000       1.3424730
       5638.5400       1.3590000
       5640.4800       1.3714390
       5642.4200       1.3947370
       5644.3600       1.4028550
       5646.3000       1.3653830
       5648.2400       1.3333980
       5650.1800       1.3572630
       5652.1200       1.3862460
       5654.0600       1.4208480
       5656.0000       1.4177990
       5657.9400       1.3949360
       5659.8800       1.4141070
       5661.8200       1.3856510
       5663.7600       1.3026550
       5665.7000       1.2508750
       5667.6400       1.2238350
       5669.5800       1.2042590
       5671.5200       1.1789320
       5673.4600       1.1234930
       5675.4000       1.0971810
       5677.3400       1.0875710
       5679.2800       1.0495590
       5681.2200      0.99765680
       5683.1600      0.98156670
       5685.1000       1.0092500
       5687.0400      0.95198320
       5688.9800      0.89797470
       5690.9200      0.90474770
       5692.8600      0.91918240
       5694.8000      0.89995780
       5696.7400      0.89954290
       5698.6800      0.89431740
       5700.6200      0.88071240
       5702.5600      0.82970840
       5704.5000      0.77845510
       5706.4400      0.77955890
       5708.3800      0.79918900
       5710.3200      0.76944020
       5712.2600      0.74607350
       5714.2000      0.73462060
       5716.1400      0.76268220
       5718.0800      0.72146920
       5720.0200      0.69572970
       5721.9600      0.75437800
       5723.9000      0.74064300
       5725.8400      0.74904350
       5727.7800      0.75193270
       5729.7200      0.99355130
       5731.6600       1.1146920
       5733.6000      0.77882590
       5735.5400      0.72033770
       5737.4800      0.76806830
       5739.4200      0.76388380
       5741.3600      0.75890390
       5743.3000      0.74900070
       5745.2400      0.74994940
       5747.1800      0.73197950
       5749.1200      0.70674690
       5751.0600      0.71213930
       5753.0000      0.66280620
       5754.9400      0.66313960
       5756.8800      0.68616240
       5758.8200      0.68650720
       5760.7600      0.67781350
       5762.7000      0.63241620
       5764.6400      0.65702940
       5766.5800      0.68030530
       5768.5200      0.66764860
       5770.4600      0.66416380
       5772.4000      0.65960130
       5774.3400      0.62998210
       5776.2800      0.66251990
       5778.2200      0.68135750
       5780.1600      0.67057610
       5782.1000      0.64276370
       5784.0400      0.63174650
       5785.9800      0.67314180
       5787.9200      0.69027320
       5789.8600      0.67007370
       5791.8000      0.66279570
       5793.7400      0.68281610
       5795.6800      0.70107900
       5797.6200      0.67304360
       5799.5600      0.66240660
       5801.5000      0.67260010
       5803.4400      0.66949240
       5805.3800      0.67689900
       5807.3200      0.69615030
       5809.2600      0.70310680
       5811.2000      0.70980140
       5813.1400      0.70938940
       5815.0800      0.71173160
       5817.0200      0.73077060
       5818.9600      0.73123800
       5820.9000      0.73843660
       5822.8400      0.77257810
       5824.7800      0.81817200
       5826.7200      0.83906630
       5828.6600      0.86372300
       5830.6000      0.88598330
       5832.5400      0.89385760
       5834.4800      0.92968490
       5836.4200      0.95911970
       5838.3600       1.0041170
       5840.3000       1.0173570
       5842.2400       1.0266770
       5844.1800       1.0237260
       5846.1200       1.0654390
       5848.0600       1.0709720
       5850.0000       1.1014260
       5851.9400       1.1650440
       5853.8800       1.2148230
       5855.8200       1.2149970
       5857.7600       1.2538270
       5859.7000       1.2841320
       5861.6400       1.2315780
       5863.5800       1.2484110
       5865.5200       1.3227760
       5867.4600       1.3318420
       5869.4000       1.3494220
       5871.3400       1.3428420
       5873.2800       1.3995040
       5875.2200       1.4319080
       5877.1600       1.4356420
       5879.1000       1.4641440
       5881.0400       1.4506650
       5882.9800       1.4509520
       5884.9200       1.4248810
       5886.8600       1.4669060
       5888.8000       1.4219490
       5890.7400       1.4220510
       5892.6800       1.5024940
       5894.6200       1.5060820
       5896.5600       1.5237160
       5898.5000       1.5604040
       5900.4400       1.5114930
       5902.3800       1.4446210
       5904.3200       1.4382130
       5906.2600       1.4354990
       5908.2000       1.5252820
       5910.1400       1.5336740
       5912.0800       1.4710010
       5914.0200       1.4558320
       5915.9600       1.4610400
       5917.9000       1.4407810
       5919.8400       1.4874210
       5921.7800       1.5079920
       5923.7200       1.5011600
       5925.6600       1.5046020
       5927.6000       1.5418210
       5929.5400       1.4532980
       5931.4800       1.4649180
       5933.4200       1.4490840
       5935.3600       1.4459690
       5937.3000       1.4834170
       5939.2400       1.4728340
       5941.1800       1.4281900
       5943.1200       1.4219520
       5945.0600       1.4692240
       5947.0000       1.4751320
       5948.9401       1.4339730
       5950.8800       1.4341050
       5952.8200       1.4494920
       5954.7600       1.4674130
       5956.7000       1.4517540
       5958.6400       1.4558580
       5960.5800       1.4056740
       5962.5200       1.4765190
       5964.4600       1.4333440
       5966.4000       1.4204830
       5968.3400       1.4552350
       5970.2800       1.4108630
       5972.2200       1.3941870
       5974.1600       1.4086910
       5976.1000       1.3760070
       5978.0400       1.3710900
       5979.9800       1.3880600
       5981.9200       1.3780040
       5983.8600       1.4305050
       5985.8000       1.3876700
       5987.7400       1.3881240
       5989.6800       1.3519320
       5991.6200       1.3050360
       5993.5600       1.3382420
       5995.5000       1.3358970
       5997.4400       1.2918920
       5999.3800       1.3018970
       6001.3200       1.3046570
       6003.2600       1.3205130
       6005.2000       1.3042530
       6007.1400       1.2821570
       6009.0800       1.2617390
       6011.0200       1.2773850
       6012.9600       1.2719670
       6014.9000       1.2969620
       6016.8400       1.3216010
       6018.7800       1.2609330
       6020.7200       1.1850910
       6022.6600       1.1851250
       6024.6000       1.1994330
       6026.5400       1.2367450
       6028.4800       1.1940950
       6030.4200       1.1764690
       6032.3600       1.2116380
       6034.3000       1.1767850
       6036.2400       1.1548610
       6038.1800       1.1156410
       6040.1200       1.1160450
       6042.0600       1.1398040
       6044.0000       1.1087420
       6045.9400       1.0523850
       6047.8800       1.0439640
       6049.8200       1.0615710
       6051.7600       1.0952190
       6053.7000       1.0724300
       6055.6400       1.0905950
       6057.5800       1.0438290
       6059.5199      0.97890130
       6061.4600       1.0112580
       6063.4000       1.0318410
       6065.3400      0.98488460
       6067.2800       1.0262910
       6069.2200       1.0278890
       6071.1600      0.98547320
       6073.1000      0.92178640
       6075.0400      0.92844590
       6076.9800      0.93617640
       6078.9200      0.95176010
       6080.8600      0.92437460
       6082.8000      0.92597170
       6084.7400      0.92061640
       6086.6800      0.92172400
       6088.6200      0.96858380
       6090.5600       1.0026340
       6092.5000       1.0355460
       6094.4400      0.98625700
       6096.3800      0.98099200
       6098.3200       1.0026680
       6100.2600       1.0096300
       6102.2000       1.0053120
       6104.1400      0.99268670
       6106.0800       1.0039620
       6108.0200      0.99830950
       6109.9600      0.99283400
       6111.9000       1.0330090
       6113.8400       1.0454700
       6115.7800       1.0269330
       6117.7200       1.0092810
       6119.6600      0.99177130
       6121.6000       1.0551570
       6123.5400       1.0018380
       6125.4800       1.0314240
       6127.4200       1.0792060
       6129.3600       1.0723020
       6131.3000       1.0316200
       6133.2400       1.0673440
       6135.1800       1.0543270
       6137.1200       1.0314510
       6139.0600       1.0611540
       6141.0000       1.0697730
       6142.9400       1.0361720
       6144.8800       1.0785730
       6146.8200       1.0960240
       6148.7600       1.0510730
       6150.7000       1.0236230
       6152.6400       1.0626360
       6154.5800       1.1214790
       6156.5200       1.0886070
       6158.4600       1.0555690
       6160.4000       1.0914060
       6162.3400       1.0340580
       6164.2800       1.0202650
       6166.2200       1.0915900
       6168.1600       1.1157560
       6170.1000       1.0358350
       6172.0400       1.0793500
       6173.9800       1.0983280
       6175.9200       1.1174090
       6177.8600       1.1158020
       6179.8000       1.0930770
       6181.7400       1.1171720
       6183.6800       1.1172390
       6185.6200       1.1101670
       6187.5600       1.1690370
       6189.5000       1.2028910
       6191.4400       1.1797870
       6193.3800       1.1600770
       6195.3200       1.1804910
       6197.2600       1.1660330
       6199.2000       1.1785300
       6201.1400       1.1700290
       6203.0800       1.1843410
       6205.0200       1.2903200
       6206.9600       1.2888320
       6208.9000       1.2825030
       6210.8400       1.2754130
       6212.7800       1.2556600
       6214.7200       1.3186320
       6216.6600       1.3003910
       6218.6000       1.3121550
       6220.5400       1.3391640
       6222.4800       1.3790410
       6224.4200       1.4051870
       6226.3600       1.3575130
       6228.3000       1.3872750
       6230.2400       1.4034620
       6232.1800       1.3939200
       6234.1200       1.4209040
       6236.0600       1.4186920
       6238.0000       1.3991640
       6239.9400       1.3885440
       6241.8800       1.4242060
       6243.8200       1.3913960
       6245.7600       1.3490080
       6247.7000       1.3754050
       6249.6400       1.4269470
       6251.5800       1.3724970
       6253.5200       1.3497130
       6255.4600       1.3991700
       6257.4000       1.3815950
       6259.3400       1.3179220
       6261.2800       1.3708630
       6263.2200       1.4030480
       6265.1600       1.4157610
       6267.1000       1.3721670
       6269.0400       1.3804750
       6270.9800       1.4001430
       6272.9200       1.4289520
       6274.8600       1.4193460
       6276.8000       1.4139690
       6278.7400       1.4082690
       6280.6800       1.4242730
       6282.6200       1.4877510
       6284.5600       1.4560570
       6286.5000       1.4196830
       6288.4400       1.4609610
       6290.3800       1.4518890
       6292.3200       1.3973860
       6294.2600       1.3263640
       6296.2000       1.3651890
       6298.1400       1.4117920
       6300.0800       1.3340510
       6302.0200       1.3679550
       6303.9600       1.3474080
       6305.9000       1.2571500
       6307.8400       1.3207290
       6309.7800       1.3356590
       6311.7200       1.2918380
       6313.6600       1.2821620
       6315.6000       1.2875360
       6317.5400       1.2705750
       6319.4800       1.2961170
       6321.4200       1.3143740
       6323.3600       1.3026580
       6325.3000       1.2790580
       6327.2400       1.2627690
       6329.1800       1.2537640
       6331.1200       1.2728020
       6333.0600       1.2696950
       6335.0000       1.2207390
       6336.9400       1.2599790
       6338.8800       1.2441710
       6340.8200       1.2386740
       6342.7600       1.2623300
       6344.7000       1.2597000
       6346.6400       1.2292170
       6348.5800       1.1976700
       6350.5200       1.2592130
       6352.4600       1.2689390
       6354.4000       1.2462990
       6356.3400       1.2159530
       6358.2800       1.2255250
       6360.2200       1.2082730
       6362.1600       1.1313710
       6364.1000       1.1404220
       6366.0400       1.2453310
       6367.9800       1.2882520
       6369.9200       1.2425790
       6371.8600       1.2282050
       6373.8000       1.2087400
       6375.7400       1.1460760
       6377.6800       1.1717280
       6379.6200       1.1930700
       6381.5600       1.1374950
       6383.5000       1.1572210
       6385.4400       1.1762930
       6387.3800       1.1839020
       6389.3200       1.1730590
       6391.2600       1.1312570
       6393.2000       1.1201000
       6395.1400       1.0961970
       6397.0800       1.1148380
       6399.0200       1.1203400
       6400.9600       1.1036550
       6402.9000       1.1418960
       6404.8400       1.1604540
       6406.7800       1.1419630
       6408.7200       1.1362870
       6410.6600       1.1166990
       6412.6000       1.0924260
       6414.5400       1.1356030
       6416.4800       1.1480820
       6418.4200       1.1117090
       6420.3600       1.1186660
       6422.3000       1.1190530
       6424.2400       1.0864670
       6426.1800       1.0991780
       6428.1200       1.1161380
       6430.0600       1.1231850
       6432.0000       1.1093860
       6433.9400       1.0688410
       6435.8800       1.1208540
       6437.8200       1.1495220
       6439.7600       1.1287990
       6441.7000       1.1007280
       6443.6400       1.0978040
       6445.5800       1.1299920
       6447.5200       1.1420400
       6449.4600       1.1988760
       6451.4000       1.1755920
       6453.3400       1.1980010
       6455.2800       1.2408070
       6457.2200       1.1998180
       6459.1600       1.2169490
       6461.1000       1.2559540
       6463.0400       1.2285370
       6464.9800       1.2378260
       6466.9200       1.2587370
       6468.8600       1.2140060
       6470.8000       1.2498120
       6472.7400       1.2975850
       6474.6800       1.2784470
       6476.6200       1.3082840
       6478.5600       1.3012320
       6480.5000       1.2470650
       6482.4400       1.2612170
       6484.3800       1.2861290
       6486.3200       1.2947010
       6488.2600       1.3098450
       6490.2000       1.2770630
       6492.1400       1.2463300
       6494.0800       1.2160040
       6496.0200       1.2453160
       6497.9600       1.2804520
       6499.9000       1.2355570
       6501.8400       1.2522640
       6503.7800       1.2924190
       6505.7200       1.2562490
       6507.6600       1.2836120
       6509.6000       1.2568680
       6511.5400       1.2606040
       6513.4800       1.2636810
       6515.4200       1.2673390
       6517.3600       1.2751080
       6519.3000       1.2918550
       6521.2400       1.2774280
       6523.1800       1.2701920
       6525.1200       1.2386700
       6527.0600       1.2064660
       6529.0000       1.1925840
       6530.9400       1.1676940
       6532.8800       1.2221060
       6534.8200       1.2087210
       6536.7600       1.1964730
       6538.7000       1.2021100
       6540.6400       1.2039600
       6542.5800       1.2145470
       6544.5200       1.2200970
       6546.4600       1.2439280
       6548.4000       1.2159530
       6550.3400       1.2010870
       6552.2800       1.2380810
       6554.2200       1.2175700
       6556.1600       1.1718120
       6558.1000       1.2241920
       6560.0400       1.2294400
       6561.9800       1.2497810
       6563.9200       1.2532880
       6565.8600       1.2549570
       6567.8000       1.2733650
       6569.7400       1.2544260
       6571.6800       1.2593160
       6573.6200       1.2975480
       6575.5600       1.2715720
       6577.5000       1.2106120
       6579.4400       1.1996530
       6581.3800       1.2603000
       6583.3200       1.2811220
       6585.2600       1.2520820
       6587.2000       1.2006340
       6589.1400      0.98073300
       6591.0800      0.70856240
       6593.0200      0.57264780
       6594.9600      0.56824550
       6596.9000      0.68564020
       6598.8400       1.1027620
       6600.7800       1.2075310
       6602.7200       1.1994870
       6604.6600       1.2102140
       6606.6000       1.1862680
       6608.5400       1.1783750
       6610.4800       1.0860960
       6612.4200       1.0656860
       6614.3600       1.0844310
       6616.3000       1.0446460
       6618.2400       1.0951700
       6620.1800       1.1693330
       6622.1200       1.1579060
       6624.0600       1.1601550
       6626.0000       1.1519050
       6627.9400       1.1803690
       6629.8800       1.2080810
       6631.8200       1.1706780
       6633.7600       1.1570380
       6635.7000       1.1751000
       6637.6400       1.1777900
       6639.5800       1.1496080
       6641.5200       1.1122000
       6643.4600       1.0780450
       6645.4000       1.0654370
       6647.3400       1.0643980
       6649.2800       1.0674070
       6651.2200       1.0473490
       6653.1600       1.0495750
       6655.1000       1.0708780
       6657.0400       1.0942920
       6658.9800       1.1292630
       6660.9200       1.1042350
       6662.8600       1.1191290
       6664.8000       1.1360330
       6666.7400       1.1437620
       6668.6800       1.1489390
       6670.6200       1.1156690
       6672.5600       1.1027430
       6674.5000       1.1277180
       6676.4400       1.1203730
       6678.3800       1.1094070
       6680.3200       1.1088720
       6682.2600       1.0882950
       6684.2000       1.0954870
       6686.1400       1.0729430
       6688.0800       1.0440710
       6690.0200       1.0988940
       6691.9600       1.1137110
       6693.9000       1.0751950
       6695.8400       1.0769990
       6697.7800       1.0946320
       6699.7200       1.1210340
       6701.6600       1.0801330
       6703.6000       1.0675520
       6705.5400       1.0420600
       6707.4800       1.0062800
       6709.4200       1.0222290
       6711.3600       1.0241980
       6713.3000       1.0296420
       6715.2400       1.0121600
       6717.1800       1.0236640
       6719.1200       1.0267560
       6721.0600       1.0144210
       6723.0000      0.97472130
       6724.9400      0.96535500
       6726.8800       1.0149440
       6728.8200       1.0444800
       6730.7600      0.99533320
       6732.7000      0.97034820
       6734.6400       1.0105730
       6736.5799       1.0491420
       6738.5200       1.0115740
       6740.4600      0.99164220
       6742.4000      0.97379710
       6744.3400      0.88216930
       6746.2800      0.79389450
       6748.2200      0.83364380
       6750.1600      0.82536620
       6752.1000      0.81909170
       6754.0400      0.90339480
       6755.9800      0.92621230
       6757.9200      0.89672920
       6759.8600      0.89193810
       6761.8000      0.86960070
       6763.7400      0.82846310
       6765.6800      0.84209020
       6767.6200      0.89206120
       6769.5600      0.94831350
       6771.5000      0.98458070
       6773.4400      0.95322030
       6775.3800      0.95322170
       6777.3200      0.99540230
       6779.2600      0.95406370
       6781.2000      0.93357600
       6783.1400      0.93284920
       6785.0800      0.92130040
       6787.0200      0.93462310
       6788.9600      0.95956790
       6790.9000      0.97867170
       6792.8400      0.94719820
       6794.7800      0.93621620
       6796.7200      0.95574570
       6798.6600      0.94151660
       6800.6000      0.92771280
       6802.5400      0.92918120
       6804.4800      0.93371600
       6806.4200      0.93670660
       6808.3600      0.92839250
       6810.3000      0.91329630
       6812.2400      0.90522610
       6814.1800      0.92677710
       6816.1200      0.98118350
       6818.0600      0.96642050
       6820.0000      0.89306510
       6821.9400      0.91042350
       6823.8800      0.94174870
       6825.8200      0.92913900
       6827.7600      0.92856160
       6829.7000      0.94370830
       6831.6400      0.94768820
       6833.5800      0.93437530
       6835.5200      0.93234890
       6837.4600      0.93417850
       6839.4000      0.90896940
       6841.3400      0.85776000
       6843.2800      0.87380220
       6845.2200      0.89153750
       6847.1600      0.88884870
       6849.1000      0.90037900
       6851.0400      0.92502430
       6852.9800      0.91938760
       6854.9200      0.87054950
       6856.8600      0.86170270
       6858.8000      0.86879770
       6860.7400      0.86615960
       6862.6800      0.85820100
       6864.6200      0.81055940
       6866.5600      0.78590770
       6868.5000      0.82056270
       6870.4400      0.83486960
       6872.3800      0.77216860
       6874.3200      0.68491260
       6876.2600      0.74771760
       6878.2000      0.83981320
       6880.1400      0.79026940
       6882.0800      0.76344340
       6884.0200      0.80929140
       6885.9600      0.83230120
       6887.9000      0.79690190
       6889.8400      0.76175940
       6891.7800      0.76179620
       6893.7200      0.77594710
       6895.6600      0.78149740
       6897.6000      0.76150520
       6899.5400      0.75177930
       6901.4800      0.77377350
       6903.4200      0.80659630
       6905.3600      0.79061900
       6907.3000      0.75708880
       6909.2400      0.74258160
       6911.1800      0.74877600
       6913.1200      0.76510620
       6915.0600      0.79580150
       6917.0000      0.81026240
       6918.9400      0.78158810
       6920.8800      0.77556840
       6922.8200      0.76812760
       6924.7600      0.73865990
       6926.7000      0.74504890
       6928.6400      0.78093260
       6930.5800      0.78109290
       6932.5200      0.75947650
       6934.4600      0.75662980
       6936.4000      0.77828110
       6938.3400      0.75625810
       6940.2800      0.77354570
       6942.2200      0.83690790
       6944.1600      0.81332130
       6946.1000      0.80969970
       6948.0400      0.82701490
       6949.9800      0.81917140
       6951.9200      0.81502920
       6953.8600      0.84045380
       6955.8000      0.87477640
       6957.7400      0.88328400
       6959.6800      0.88417270
       6961.6200      0.86945520
       6963.5600      0.87074910
       6965.5000      0.86784750
       6967.4400      0.86339180
       6969.3800      0.91755020
       6971.3200      0.93514900
       6973.2600      0.89418120
       6975.2000      0.88524040
       6977.1400      0.88435170
       6979.0800      0.90935880
       6981.0200      0.92296670
       6982.9600      0.94772480
       6984.9000      0.94451100
       6986.8400      0.88568040
       6988.7800      0.91595430
       6990.7200      0.97959450
       6992.6600      0.98235000
       6994.6000      0.94429640
       6996.5400      0.93741880
       6998.4800      0.95520780
       7000.4200      0.95847540
       7002.3600      0.96052190
       7004.3000      0.96118580
       7006.2400      0.92627080
       7008.1800      0.90501180
       7010.1200      0.90532260
       7012.0600      0.93026970
       7014.0000      0.92083390
       7015.9400      0.91635850
       7017.8800      0.90622220
       7019.8200      0.88668750
       7021.7600      0.90750350
       7023.7000      0.90434240
       7025.6400      0.90697410
       7027.5800      0.92801090
       7029.5200      0.94059960
       7031.4600      0.94373330
       7033.4000      0.93964330
       7035.3400      0.92379390
       7037.2800      0.90592040
       7039.2200      0.90863730
       7041.1600      0.90792810
       7043.1000      0.89260920
       7045.0400      0.91483120
       7046.9800      0.94126070
       7048.9200      0.94809590
       7050.8600      0.92809380
       7052.8000      0.90940430
       7054.7400      0.88806460
       7056.6800      0.85937760
       7058.6200      0.85332440
       7060.5600      0.86660430
       7062.5000      0.90763870
       7064.4400      0.90201130
       7066.3800      0.92145130
       7068.3200      0.86347140
       7070.2600      0.79440480
       7072.2000      0.91374190
       7074.1400      0.93481190
       7076.0800      0.88593370
       7078.0200      0.86252840
       7079.9600      0.84851840
       7081.9000      0.83402290
       7083.8400      0.81809220
       7085.7800      0.82970950
       7087.7200      0.85495720
       7089.6600      0.84230390
       7091.6000      0.82483290
       7093.5400      0.84689570
       7095.4800      0.85157200
       7097.4200      0.83965160
       7099.3600      0.86555610
       7101.3000      0.89094300
       7103.2400      0.85925710
       7105.1800      0.82455120
       7107.1200      0.86542210
       7109.0600      0.89832100
       7111.0000      0.86466700
       7112.9400      0.84403410
       7114.8800      0.86823670
       7116.8200      0.86136960
       7118.7600      0.80757190
       7120.7000      0.80244730
       7122.6400      0.81629000
       7124.5800      0.79570630
       7126.5200      0.82077720
       7128.4600      0.87675140
       7130.4000      0.87995380
       7132.3400      0.85979980
       7134.2800      0.86085270
       7136.2200      0.82204190
       7138.1600      0.84735690
       7140.1000      0.87701360
       7142.0400      0.83826200
       7143.9800      0.83278970
       7145.9200      0.83240850
       7147.8600      0.80643420
       7149.8000      0.82486660
       7151.7400      0.86471700
       7153.6800      0.89714220
       7155.6200      0.87890710
       7157.5600      0.84883450
       7159.5000      0.82611070
       7161.4400      0.83219770
       7163.3800      0.82667920
       7165.3200      0.85685040
       7167.2600      0.88095160
       7169.2000      0.85643430
       7171.1400      0.83555670
       7173.0800      0.83869000
       7175.0200      0.84083800
       7176.9600      0.86683930
       7178.9000      0.87500450
       7180.8400      0.87954540
       7182.7800      0.86520540
       7184.7200      0.84829690
       7186.6600      0.83377430
       7188.6000      0.84637840
       7190.5400      0.86423410
       7192.4800      0.84425090
       7194.4200      0.85409780
       7196.3600      0.87184030
       7198.3000      0.91729400
       7200.2400      0.91353230
       7202.1800      0.89055220
       7204.1200      0.86445840
       7206.0600      0.89516930
       7208.0000      0.89502840
       7209.9400      0.88056880
       7211.8800      0.89057860
       7213.8200      0.87325410
       7215.7600      0.89810400
       7217.7000      0.88794250
       7219.6400      0.89983390
       7221.5800      0.90036110
       7223.5200      0.91495040
       7225.4600      0.91746310
       7227.4000      0.93970920
       7229.3400      0.93202140
       7231.2800      0.95342390
       7233.2200      0.95937250
       7235.1600      0.94435880
       7237.1000      0.92710980
       7239.0400      0.96194280
       7240.9800      0.92416630
       7242.9200      0.87600610
       7244.8600      0.91909270
       7246.8000      0.92347530
       7248.7400      0.95583890
       7250.6800      0.97751680
       7252.6200      0.97640030
       7254.5600      0.95646450
       7256.5000      0.95313300
       7258.4400      0.95731770
       7260.3800      0.97207550
       7262.3200       1.0344640
       7264.2600       1.0227840
       7266.2000      0.97803160
       7268.1400       1.0247550
       7270.0800       1.0032030
       7272.0200      0.94089880
       7273.9600       1.0183110
       7275.9000       1.0473630
       7277.8400       1.0425270
       7279.7800       1.0414520
       7281.7200       1.0401610
       7283.6600       1.0602180
       7285.6000       1.0689840
       7287.5400       1.0632790
       7289.4800       1.0389220
       7291.4200       1.0049420
       7293.3600       1.0309660
       7295.3000       1.0546450
       7297.2400       1.0590870
       7299.1800       1.0460820
       7301.1200       1.0702790
       7303.0600       1.0709640
       7305.0000       1.0615120
       7306.9400       1.0833410
       7308.8800       1.0630210
       7310.8200       1.0390800
       7312.7600       1.0654940
       7314.7000       1.0112910
       7316.6400       1.0062450
       7318.5800       1.1129320
       7320.5200       1.1224270
       7322.4600       1.0522270
       7324.4000       1.0381080
       7326.3400       1.0554000
       7328.2800       1.0858020
       7330.2200       1.1094260
       7332.1600       1.1116870
       7334.1000       1.0963850
       7336.0400       1.0813610
       7337.9800       1.0650770
       7339.9200       1.0243710
       7341.8600       1.0551580
       7343.8000       1.0872290
       7345.7400       1.0900110
       7347.6800       1.0646270
       7349.6200      0.98434710
       7351.5600      0.97788120
       7353.5000       1.0104680
       7355.4400       1.0663980
       7357.3800       1.0497770
       7359.3200       1.0283620
       7361.2600      0.98141050
       7363.2000      0.96692370
       7365.1400       1.0229080
       7367.0800       1.0546890
       7369.0200       1.0245310
       7370.9600       1.0732550
       7372.9000       1.0486890
       7374.8400       1.0407670
       7376.7800       1.0525260
       7378.7200       1.0041320
       7380.6600       1.0352750
       7382.6000       1.0116670
       7384.5400       1.0136010
       7386.4800       1.0462490
       7388.4200       1.0328430
       7390.3600      0.91490510
       7392.3000      0.93667810
       7394.2400       1.0323180
       7396.1800       1.0205590
       7398.1200      0.94622270
       7400.0600      0.98013440
       7402.0000       1.0109070
       7403.9400      0.98260200
       7405.8800       1.0191830
       7407.8200       1.0340600
       7409.7600       1.0012240
       7411.7000       1.0456740
       7413.6401       1.0003150
       7415.5800       1.0183280
       7417.5200       1.0242870
       7419.4600      0.99690070
       7421.4000      0.98982110
       7423.3400      0.98354860
       7425.2800      0.98832270
       7427.2200      0.99514840
       7429.1600      0.95702350
       7431.1000      0.98567000
       7433.0400       1.0266100
       7434.9800      0.97536080
       7436.9200      0.98633620
       7438.8600      0.95330770
       7440.8000      0.99012170
       7442.7400      0.95410630
       7444.6800      0.95458910
       7446.6200      0.92225500
       7448.5600      0.94069300
       7450.5000      0.89800940
       7452.4400      0.95419170
       7454.3800      0.97995870
       7456.3200      0.93678730
       7458.2600      0.94998910
       7460.2000      0.94079140
       7462.1400      0.98251180
       7464.0800      0.95739910
       7466.0200      0.95403180
       7467.9600      0.98712870
       7469.9000      0.95753060
       7471.8400      0.91995840
       7473.7800      0.91923210
       7475.7200      0.96811650
       7477.6600      0.88889970
       7479.6000      0.89091280
       7481.5400      0.95985760
       7483.4800      0.89461680
       7485.4200      0.83880520
       7487.3600      0.85058910
       7489.3000      0.89606210
       7491.2400      0.95734700
       7493.1800      0.90271800
       7495.1200      0.86972310
       7497.0600      0.89595900
       7499.0000      0.90085180
       7500.9400      0.88322220
       7502.8800      0.84126370
       7504.8200      0.87539880
       7506.7600      0.89445910
       7508.7000      0.86137870
       7510.6400      0.82346570
       7512.5800      0.81335470
       7514.5200      0.83935670
       7516.4600      0.79985080
       7518.4000      0.79594000
       7520.3400      0.84038940
       7522.2800      0.84381570
       7524.2200      0.80867420
       7526.1600      0.75460620
       7528.1000      0.80221340
       7530.0400      0.86343780
       7531.9800      0.81349920
       7533.9200      0.76597740
       7535.8600      0.75334910
       7537.8000      0.72461010
       7539.7400      0.73289600
       7541.6800      0.73842210
       7543.6200      0.71166630
       7545.5600      0.69963180
       7547.5000      0.72392140
       7549.4400      0.77096500
       7551.3800      0.72192910
       7553.3200      0.68868170
       7555.2600      0.70701780
       7557.2000      0.71027870
       7559.1400      0.71857260
       7561.0800      0.69222630
       7563.0200      0.68926040
       7564.9600      0.67416300
       7566.9000      0.67516150
       7568.8400      0.70446160
       7570.7800      0.67437770
       7572.7200      0.64413370
       7574.6600      0.65409590
       7576.6000      0.63802480
       7578.5400      0.61828330
       7580.4800      0.58117810
       7582.4200      0.58371840
       7584.3600      0.59425280
       7586.3000      0.59034870
       7588.2400      0.58555910
       7590.1800      0.59934930
       7592.1200      0.62701630
       7594.0600      0.58796550
       7596.0000      0.59168700
       7597.9400      0.55623400
       7599.8800      0.53331020
       7601.8200      0.48729270
       7603.7600      0.52598410
       7605.7000      0.45269950
       7607.6400      0.51765330
       7609.5800      0.57901060
       7611.5200      0.55004840
       7613.4600      0.50727470
       7615.4000      0.57846950
       7617.3400      0.48903120
       7619.2800      0.50001330
       7621.2200      0.48667560
       7623.1600      0.42508240
       7625.1000      0.50318380
       7627.0400      0.57594120
       7628.9800      0.51581990
       7630.9200      0.53488050
       7632.8600      0.45512540
       7634.8000      0.46731830
       7636.7400      0.51939840
       7638.6800      0.45399410
       7640.6200      0.44668720
       7642.5600      0.42438800
       7644.5000      0.44116290
       7646.4400      0.47285130
       7648.3800      0.44150050
       7650.3200      0.47844380
       7652.2600      0.52084620
       7654.2000      0.52159860
       7656.1400      0.48529070
       7658.0800      0.52354540
       7660.0200      0.50019390
       7661.9600      0.53467570
       7663.9000      0.54133330
       7665.8400      0.56311040
       7667.7800      0.57988050
       7669.7200      0.58731850
       7671.6600      0.60605530
       7673.6000      0.58434890
       7675.5400      0.58122310
       7677.4800      0.60545480
       7679.4200      0.61200680
       7681.3600      0.64803320
       7683.3000      0.68270980
       7685.2400      0.75686470
       7687.1800      0.74057180
       7689.1200      0.75074850
       7691.0600      0.73663130
       7693.0000      0.80148740
       7694.9400      0.77585620
       7696.8800      0.76065650
       7698.8200      0.82601450
       7700.7600      0.89079820
       7702.7000      0.85484640
       7704.6400      0.85640110
       7706.5800      0.91951070
       7708.5200      0.92976420
       7710.4600      0.92253550
       7712.4000      0.89376490
       7714.3400      0.91628530
       7716.2800       1.0072000
       7718.2200       1.0049550
       7720.1600       1.0158780
       7722.1000       1.0285510
       7724.0400      0.99529900
       7725.9800      0.99128440
       7727.9200       1.0153190
       7729.8600       1.0338620
       7731.8000       1.0887870
       7733.7400       1.1066610
       7735.6800       1.1516780
       7737.6200       1.1848230
       7739.5600       1.1371430
       7741.5000       1.1002550
       7743.4400       1.1312490
       7745.3800       1.2041870
       7747.3200       1.2326850
       7749.2600       1.2415620
       7751.2000       1.1920870
       7753.1400       1.2064730
       7755.0800       1.2594360
       7757.0200       1.1660800
       7758.9600       1.1766950
       7760.9000       1.2782870
       7762.8400       1.2722180
       7764.7800       1.2367340
       7766.7200       1.1794360
       7768.6600       1.2227720
       7770.6000       1.3169160
       7772.5400       1.3244370
       7774.4800       1.2846800
       7776.4200       1.2703010
       7778.3600       1.2801490
       7780.3000       1.2862720
       7782.2400       1.3138190
       7784.1800       1.2730010
       7786.1200       1.2119050
       7788.0600       1.2246110
       7790.0000       1.1878710
       7791.9400       1.2597580
       7793.8800       1.2753520
       7795.8200       1.3312040
       7797.7600       1.2267760
       7799.7000       1.1248290
       7801.6400       1.1479140
       7803.5800       1.2072620
       7805.5200       1.2551130
       7807.4600       1.2028640
       7809.4000       1.1681350
       7811.3400       1.2004810
       7813.2800       1.2295630
       7815.2200       1.1695060
       7817.1600       1.1529540
       7819.1000       1.1196960
       7821.0400       1.1351100
       7822.9800       1.1166230
       7824.9200       1.1357870
       7826.8600       1.1081570
       7828.8000       1.1384240
       7830.7400       1.1288480
       7832.6800       1.0761050
       7834.6200       1.1047290
       7836.5600       1.1042540
       7838.5000       1.1068860
       7840.4400       1.1766070
       7842.3800       1.1713420
       7844.3200       1.2257020
       7846.2600       1.1505470
       7848.2000       1.0977790
       7850.1400       1.1001190
       7852.0800       1.1283780
       7854.0200       1.2164450
       7855.9600       1.1016050
       7857.9000       1.1058390
       7859.8400       1.1471330
       7861.7800       1.1709510
       7863.7200       1.1040220
       7865.6600       1.1318230
       7867.6000       1.1127650
       7869.5400       1.0681240
       7871.4800       1.0996380
       7873.4200       1.1210770
       7875.3600       1.1021540
       7877.3000       1.1252510
       7879.2400       1.1113150
       7881.1800       1.1388970
       7883.1200       1.1293350
       7885.0600       1.0542960
       7887.0000       1.1005440
       7888.9400       1.1313510
       7890.8800       1.1718200
       7892.8200       1.1703520
       7894.7600       1.0649320
       7896.7000       1.1347900
       7898.6400       1.1203450
       7900.5800       1.0678360
       7902.5200       1.1571620
       7904.4600       1.0985000
       7906.4000       1.0462490
       7908.3400       1.1025450
       7910.2800       1.1235660
       7912.2200       1.1417650
       7914.1600       1.1372680
       7916.1000       1.1686510
       7918.0400       1.1916910
       7919.9800       1.1032840
       7921.9200       1.0541260
       7923.8600       1.0516250
       7925.8000       1.0421090
       7927.7400       1.0149850
       7929.6800       1.0545980
       7931.6200       1.1172700
       7933.5600       1.0730860
       7935.5000       1.0259940
       7937.4400       1.0269200
       7939.3800       1.0411820
       7941.3200       1.1156960
       7943.2600       1.1329150
       7945.2000       1.0668550
       7947.1400       1.0681300
       7949.0800       1.0975550
       7951.0200       1.1292590
       7952.9600       1.0615790
       7954.9000      0.98283160
       7956.8400       1.0097820
       7958.7800       1.0030960
       7960.7200      0.96116260
       7962.6600      0.93410440
       7964.6000      0.96622480
       7966.5400       1.0293950
       7968.4800       1.0497910
       7970.4200       1.0023310
       7972.3600      0.98752290
       7974.3000       1.0047790
       7976.2400      0.97810350
       7978.1800      0.97462120
       7980.1200      0.99405700
       7982.0600       1.0527710
       7984.0000       1.0536430
       7985.9400      0.97757690
       7987.8800      0.96659460
       7989.8200       1.0156660
       7991.7600       1.0328350
       7993.7000      0.96521000
       7995.6400      0.92468240
       7997.5800      0.98933070
       7999.5200      0.89867630
       8001.4600      0.88504060
       8003.4000      0.92565870
       8005.3400      0.94363520
       8007.2800      0.97469690
       8009.2200      0.96749060
       8011.1600      0.97735140
       8013.1000      0.94052940
       8015.0400      0.89656930
       8016.9800      0.92940200
       8018.9200      0.94066100
       8020.8600      0.91901350
       8022.8000      0.96199270
       8024.7400      0.90182010
       8026.6800      0.86922530
       8028.6200      0.91166040
       8030.5600      0.91251170
       8032.5000      0.86053340
       8034.4400      0.85478250
       8036.3800      0.88530270
       8038.3200      0.85687990
       8040.2600      0.82954940
       8042.2000      0.83732270
       8044.1400      0.86726050
       8046.0800      0.89562590
       8048.0200      0.91175130
       8049.9600      0.84775700
       8051.9000      0.78745930
       8053.8400      0.79119780
       8055.7800      0.79746120
       8057.7200      0.82581140
       8059.6600      0.86773530
       8061.6000      0.91077300
       8063.5400      0.84347880
       8065.4800      0.76769550
       8067.4200      0.74970920
       8069.3600      0.79096180
       8071.3000      0.80129620
       8073.2400      0.81894130
       8075.1800      0.82640990
       8077.1200      0.80776130
       8079.0600      0.75496690
       8081.0000      0.75510760
       8082.9400      0.77453950
       8084.8800      0.78177860
       8086.8200      0.75787870
       8088.7600      0.80946710
       8090.7001      0.82004210
       8092.6400      0.77755740
       8094.5800      0.76577410
       8096.5200      0.75634430
       8098.4600      0.73446940
       8100.4000      0.73583880
       8102.3400      0.68488930
       8104.2800      0.67158350
       8106.2200      0.73316670
       8108.1600      0.73331670
       8110.1000      0.71499330
       8112.0400      0.72687630
       8113.9800      0.66513160
       8115.9200      0.65798160
       8117.8600      0.69960020
       8119.8000      0.73034020
       8121.7400      0.68681680
       8123.6800      0.65944740
       8125.6200      0.68167840
       8127.5600      0.71441420
       8129.5000      0.71522740
       8131.4400      0.67020590
       8133.3800      0.70380170
       8135.3200      0.71398840
       8137.2600      0.68424200
       8139.2000      0.74416730
       8141.1400      0.72724360
       8143.0800      0.72506110
       8145.0200      0.72989100
       8146.9600      0.68564130
       8148.9000      0.66151730
       8150.8400      0.64497990
       8152.7800      0.68039200
       8154.7200      0.68777030
       8156.6600      0.66948880
       8158.6000      0.68982850
       8160.5400      0.70152370
       8162.4800      0.67683250
       8164.4200      0.62369710
       8166.3600      0.63445230
       8168.3000      0.67787990
       8170.2400      0.70936510
       8172.1800      0.67583010
       8174.1200      0.62824760
       8176.0600      0.60594420
       8178.0000      0.64322700
       8179.9400      0.65564700
       8181.8800      0.61951670
       8183.8200      0.61817430
       8185.7600      0.59496400
       8187.7000      0.52765880
       8189.6400      0.53612620
       8191.5800      0.52972830
       8193.5200      0.44007370
       8195.4600      0.42423980
       8197.4000      0.46856930
       8199.3400      0.42462670
       8201.2799      0.35133460
       8203.2200      0.33911320
       8205.1600      0.38619650
       8207.1000      0.39749640
       8209.0400      0.30662610
       8210.9800      0.29605850
       8212.9200      0.34837130
       8214.8600      0.30689730
       8216.8000      0.27690200
       8218.7400      0.25872340
       8220.6800      0.24251740
       8222.6200      0.24409050
       8224.5600      0.24629380
       8226.5000      0.29584340
       8228.4400      0.28729520
       8230.3800      0.23868800
       8232.3200      0.25161660
       8234.2600      0.23255850
       8236.2000      0.21211030
       8238.1400      0.24738370
       8240.0800      0.23565840
       8242.0200      0.17493740
       8243.9600      0.18027970
       8245.9000      0.25039750
       8247.8400      0.25427590
       8249.7800      0.19964270
       8251.7200      0.18860680
       8253.6600      0.22344250
       8255.6000      0.23047900
       8257.5400      0.21676560
       8259.4800      0.20172930
       8261.4200      0.13821660
       8263.3600      0.11945290
       8265.3000      0.16135610
       8267.2400      0.18537100
       8269.1800      0.21175410
       8271.1200      0.21713990
       8273.0600      0.21301730
       8275.0000      0.28150560
       8276.9400      0.27837580
       8278.8800      0.15466360
       8280.8200      0.19143920
       8282.7600      0.25656760
       8284.7000      0.18064380
       8286.6400      0.19067800
       8288.5800      0.27733720
       8290.5200      0.20559870
       8292.4600      0.12138030
       8294.4000      0.20542480
       8296.3400      0.23416340
       8298.2800      0.17433070
       8300.2200      0.11955290
       8302.1600      0.12470280
       8304.1000      0.16953480
       8306.0400      0.21206740
       8307.9800      0.23134380
       8309.9200      0.18787970
       8311.8600      0.17729310
       8313.8000      0.16359980
       8315.7400      0.16200380
       8317.6800      0.20428730
       8319.6200      0.21104220
       8321.5600      0.22247620
       8323.5000      0.22345270
       8325.4400      0.20225750
       8327.3800      0.18958610
       8329.3200      0.19697350
       8331.2600      0.22614880
       8333.2000      0.24151030
       8335.1400      0.26064370
       8337.0800      0.34105960
       8339.0200      0.33950970
       8340.9600      0.21471960
       8342.9000      0.21040240
       8344.8400      0.20239970
       8346.7800      0.20712340
       8348.7200      0.35485280
       8350.6600      0.35638840
       8352.6000      0.27507530
       8354.5400      0.23498620
       8356.4800      0.22818500
       8358.4200      0.28683690
       8360.3600      0.30561920
       8362.3000      0.24388970
       8364.2400      0.18461910
       8366.1800      0.13931220
       8368.1200      0.13969260
       8370.0600      0.19426450
       8372.0000      0.23837560
       8373.9400      0.20345320
       8375.8800      0.23628960
       8377.8200      0.25172170
       8379.7600      0.20167880
       8381.7000      0.22768880
       8383.6400      0.25721740
       8385.5800      0.22689390
       8387.5200      0.21429210
       8389.4600      0.24819130
       8391.4000      0.29353540
       8393.3400      0.33488210
       8395.2800      0.35734610
       8397.2200      0.38700080
       8399.1600      0.37199120
       8401.1000      0.24340030
       8403.0400      0.24499620
       8404.9800      0.27681620
       8406.9200      0.28336430
       8408.8600      0.30788900
       8410.8000      0.28986910
       8412.7400      0.23879460
       8414.6800      0.20660280
       8416.6200      0.21000000
       8418.5600      0.28544500
       8420.5000      0.28913730
       8422.4400      0.23486170
       8424.3800      0.17546920
       8426.3200      0.29641330
       8428.2600      0.41692780
       8430.2000      0.37669630
       8432.1400      0.32082240
       8434.0800      0.29043280
       8436.0200      0.30496760
       8437.9600      0.32110030
       8439.9000      0.25210020
       8441.8400      0.27113600
       8443.7800      0.36131540
       8445.7200      0.39582220
       8447.6600      0.32306530
       8449.6000      0.30187530
       8451.5400      0.33166870
       8453.4800      0.35588460
       8455.4200      0.42680040
       8457.3600      0.45664550
       8459.3000      0.47735730
       8461.2400      0.39330770
       8463.1800      0.38831730
       8465.1200      0.46025970
       8467.0600      0.41350290
       8469.0000      0.43790400
       8470.9400      0.48825640
       8472.8800      0.43348840
       8474.8200      0.43921440
       8476.7600      0.49745370
       8478.7000      0.52015630
       8480.6400      0.51492440
       8482.5800      0.57543550
       8484.5200      0.53281680
       8486.4600      0.59029350
       8488.4000      0.61240450
       8490.3400      0.54471190
       8492.2800      0.54351030
       8494.2200      0.64731310
       8496.1600      0.68014790
       8498.1000      0.70346360
       8500.0400      0.72487130
       8501.9800      0.73161300
       8503.9200      0.75602970
       8505.8600      0.69573150
       8507.8000      0.69708440
       8509.7400      0.73927490
       8511.6800      0.77827170
       8513.6200      0.78257390
       8515.5600      0.78107440
       8517.5000      0.81648940
       8519.4400      0.84188500
       8521.3800      0.80272140
       8523.3200      0.81396410
       8525.2600      0.92428880
       8527.2000      0.91702990
       8529.1400      0.92068030
       8531.0800      0.95161600
       8533.0200      0.99303770
