Units are: observed wavelength (Ang), observed flux (10^-15 erg/s/cm^2/Ang)
       3478.0000     0.023562760
       3479.4700     0.092585020
       3480.9400      0.36849460
       3482.4100      0.47010510
       3483.8800      0.70839070
       3485.3500      0.48954480
       3486.8200      0.21023270
       3488.2900      0.90741800
       3489.7600      0.76721710
       3491.2300      0.33665120
       3492.7000      0.23642260
       3494.1700      0.21729950
       3495.6400      0.30034970
       3497.1100     -0.33635250
       3498.5800     -0.15845950
       3500.0500      0.54596420
       3501.5200      0.40196620
       3502.9900      0.32066100
       3504.4600      0.42323360
       3505.9300      0.62367060
       3507.4000      0.49964320
       3508.8700      0.18949660
       3510.3400      0.28372010
       3511.8100      0.31268040
       3513.2800      0.44180970
       3514.7500      0.35180660
       3516.2200      0.16036490
       3517.6900      0.41751910
       3519.1600      0.51966830
       3520.6300      0.36606990
       3522.1000      0.10206890
       3523.5700    0.0061114080
       3525.0400      0.15364850
       3526.5100      0.19989370
       3527.9800      0.27117440
       3529.4500      0.72194990
       3530.9200      0.97728940
       3532.3900      0.52474670
       3533.8600      0.57337660
       3535.3300      0.73045840
       3536.8000      0.52170740
       3538.2700      0.44520500
       3539.7400      0.25118730
       3541.2100      0.26692710
       3542.6800     0.028755520
       3544.1500     0.071037820
       3545.6200      0.84165610
       3547.0900      0.88592850
       3548.5600      0.60591700
       3550.0300      0.39119110
       3551.5000      0.23162910
       3552.9700      0.66666050
       3554.4400      0.74897730
       3555.9100      0.43021000
       3557.3800      0.43076120
       3558.8500      0.56033860
       3560.3200      0.61760530
       3561.7900      0.50547980
       3563.2600      0.53730710
       3564.7300      0.84842310
       3566.2000      0.48495810
       3567.6700      0.17859960
       3569.1400      0.43919970
       3570.6100      0.43938270
       3572.0800      0.39290810
       3573.5500      0.52716280
       3575.0200      0.53125250
       3576.4900      0.40654780
       3577.9600      0.57660090
       3579.4300      0.64205830
       3580.9000      0.68575080
       3582.3700      0.97859080
       3583.8400      0.92214360
       3585.3100      0.99700740
       3586.7800       1.0250800
       3588.2500      0.76068380
       3589.7200      0.71779410
       3591.1900      0.74359950
       3592.6600      0.64492090
       3594.1300      0.37781920
       3595.6000      0.35523400
       3597.0700      0.51666820
       3598.5399      0.68054340
       3600.0100      0.65361420
       3601.4800      0.33428410
       3602.9500      0.41725500
       3604.4200      0.44008370
       3605.8900      0.47173230
       3607.3600      0.48409260
       3608.8300      0.40153690
       3610.3000      0.58773250
       3611.7700      0.62396500
       3613.2400      0.57412530
       3614.7100      0.50688950
       3616.1800      0.46549880
       3617.6500      0.55383820
       3619.1200      0.87611160
       3620.5900      0.80360470
       3622.0600      0.49613070
       3623.5300      0.38869430
       3625.0000      0.59410520
       3626.4700      0.78260730
       3627.9400      0.71909450
       3629.4100      0.77135970
       3630.8800      0.69644870
       3632.3500      0.55065150
       3633.8200      0.40378430
       3635.2900      0.33554380
       3636.7600      0.45205820
       3638.2300      0.57803630
       3639.7000      0.57715190
       3641.1700      0.43057420
       3642.6400      0.25084220
       3644.1100      0.53889570
       3645.5800      0.63769450
       3647.0500      0.47053990
       3648.5200      0.59462330
       3649.9900      0.65890130
       3651.4600      0.67407760
       3652.9300      0.54988390
       3654.4000      0.47522070
       3655.8700      0.57239780
       3657.3400      0.58589150
       3658.8100      0.78785630
       3660.2800      0.81094380
       3661.7500      0.59636210
       3663.2200      0.65983900
       3664.6900      0.64270100
       3666.1600      0.59557800
       3667.6300      0.77652250
       3669.1000      0.83157590
       3670.5700      0.56577770
       3672.0400      0.47856900
       3673.5100      0.50040070
       3674.9800      0.37028490
       3676.4500      0.34863630
       3677.9200      0.59069810
       3679.3900      0.81283830
       3680.8600      0.70284200
       3682.3300      0.62913410
       3683.8000      0.75903440
       3685.2700      0.80110840
       3686.7400      0.68108020
       3688.2100      0.55291150
       3689.6800      0.61277410
       3691.1500      0.73174250
       3692.6200      0.71004920
       3694.0900      0.62116260
       3695.5600      0.67490800
       3697.0300      0.76344820
       3698.5000      0.66193830
       3699.9700      0.78994130
       3701.4400      0.87320110
       3702.9100      0.80857070
       3704.3800      0.76934010
       3705.8500      0.96834910
       3707.3200      0.95463160
       3708.7900      0.61401760
       3710.2600      0.70207000
       3711.7300      0.86132060
       3713.2000      0.79357170
       3714.6700      0.80477810
       3716.1400      0.84690200
       3717.6100      0.86136130
       3719.0800      0.80667080
       3720.5500      0.90489860
       3722.0200       1.0569980
       3723.4900      0.85366090
       3724.9600      0.85987450
       3726.4300      0.96328840
       3727.9000      0.91389300
       3729.3700      0.89354540
       3730.8400      0.78592500
       3732.3100      0.63834410
       3733.7800      0.68529510
       3735.2500      0.70163460
       3736.7200      0.81977950
       3738.1900      0.93620510
       3739.6600       1.0171300
       3741.1300       1.0728820
       3742.6000      0.93857130
       3744.0700       1.0586590
       3745.5400       1.1796370
       3747.0100      0.95195200
       3748.4800      0.74714230
       3749.9500      0.76297950
       3751.4200      0.84506910
       3752.8900      0.78280310
       3754.3600      0.77405160
       3755.8300      0.87622290
       3757.3000      0.76953950
       3758.7700      0.73752050
       3760.2400      0.84898590
       3761.7100      0.80424540
       3763.1800      0.73586730
       3764.6500      0.83724470
       3766.1200      0.83234010
       3767.5900      0.82762590
       3769.0600      0.79856340
       3770.5300      0.72389730
       3772.0000      0.69386370
       3773.4700      0.63189480
       3774.9400      0.63293990
       3776.4100      0.54865940
       3777.8800      0.57567960
       3779.3500      0.63639990
       3780.8200      0.71715190
       3782.2900      0.90787140
       3783.7600      0.74038100
       3785.2300      0.27706930
       3786.7000      0.29445480
       3788.1700      0.53332290
       3789.6400      0.55942850
       3791.1100      0.47616220
       3792.5800      0.36267050
       3794.0500      0.46607180
       3795.5200      0.67707400
       3796.9900      0.66120640
       3798.4600      0.39990780
       3799.9300      0.32272550
       3801.4000      0.40717620
       3802.8700      0.45396250
       3804.3400      0.49477730
       3805.8100      0.53986690
       3807.2800      0.44194080
       3808.7500      0.35524000
       3810.2200      0.36158910
       3811.6900      0.45532660
       3813.1600      0.42846090
       3814.6300      0.37076550
       3816.1000      0.42025930
       3817.5700      0.41980280
       3819.0400      0.34997840
       3820.5100      0.29504530
       3821.9800      0.54159810
       3823.4500      0.60521190
       3824.9200      0.38433930
       3826.3900      0.47020800
       3827.8600      0.58505820
       3829.3300      0.39467150
       3830.8000      0.28180350
       3832.2700      0.39788370
       3833.7400      0.48502150
       3835.2100      0.49579830
       3836.6800      0.49517390
       3838.1500      0.50229350
       3839.6200      0.52117030
       3841.0900      0.61608540
       3842.5600      0.69995590
       3844.0300      0.63857470
       3845.5000      0.51414630
       3846.9700      0.51536290
       3848.4400      0.59861130
       3849.9100      0.58775720
       3851.3800      0.59616360
       3852.8500      0.53127830
       3854.3200      0.56385200
       3855.7900      0.75308480
       3857.2600      0.72326890
       3858.7300      0.62235520
       3860.2000      0.72944410
       3861.6700      0.79172650
       3863.1400      0.73199770
       3864.6100      0.75321590
       3866.0800      0.89804170
       3867.5500      0.85513290
       3869.0200      0.86562110
       3870.4900      0.93286310
       3871.9600      0.92129870
       3873.4300      0.84150040
       3874.9000      0.70352950
       3876.3700      0.71215500
       3877.8400      0.86961340
       3879.3100       1.0644630
       3880.7800       1.1212940
       3882.2500       1.0856620
       3883.7200       1.0197870
       3885.1900       1.0390080
       3886.6600      0.99222490
       3888.1300      0.89054880
       3889.6000      0.92356640
       3891.0700      0.90397390
       3892.5400      0.95897940
       3894.0100       1.1558250
       3895.4800       1.2740000
       3896.9500       1.0964350
       3898.4200       1.0714070
       3899.8900       1.2186090
       3901.3600       1.2292080
       3902.8300       1.2420590
       3904.3000       1.1370870
       3905.7700       1.0042610
       3907.2400       1.0639930
       3908.7100       1.3025980
       3910.1800       1.4255910
       3911.6499       1.4026520
       3913.1200       1.4268450
       3914.5900       1.4095800
       3916.0600       1.2504490
       3917.5300       1.2602650
       3919.0000       1.3750480
       3920.4700       1.3996650
       3921.9400       1.3994780
       3923.4100       1.3618350
       3924.8800       1.2996650
       3926.3500       1.3879470
       3927.8200       1.3601260
       3929.2900       1.2349550
       3930.7600       1.3775590
       3932.2300       1.5009720
       3933.7000       1.5607650
       3935.1700       1.5842510
       3936.6400       1.4977820
       3938.1100       1.4837880
       3939.5800       1.5609600
       3941.0500       1.6815060
       3942.5200       1.7050050
       3943.9900       1.5385630
       3945.4600       1.5362610
       3946.9300       1.5873680
       3948.4000       1.5635760
       3949.8700       1.5781540
       3951.3400       1.5930670
       3952.8100       1.7271640
       3954.2800       1.8330320
       3955.7500       1.7032680
       3957.2200       1.5993960
       3958.6900       1.6239150
       3960.1600       1.6832010
       3961.6300       1.6820410
       3963.1000       1.6713810
       3964.5700       1.7267920
       3966.0400       1.7188640
       3967.5100       1.8225100
       3968.9800       1.8909410
       3970.4500       1.8583090
       3971.9200       1.8532300
       3973.3900       1.8720410
       3974.8600       1.9624850
       3976.3300       1.8717370
       3977.8000       1.8686610
       3979.2700       2.0280480
       3980.7400       1.9686980
       3982.2100       1.8804710
       3983.6800       1.9117830
       3985.1500       1.9064560
       3986.6200       1.8514830
       3988.0900       1.7735700
       3989.5600       1.8550280
       3991.0300       1.8595700
       3992.5000       1.7498930
       3993.9700       1.9287750
       3995.4400       1.9502020
       3996.9100       1.8761080
       3998.3800       1.9086980
       3999.8500       1.9146200
       4001.3200       1.9694120
       4002.7900       1.9258860
       4004.2600       1.8579850
       4005.7300       1.8277530
       4007.2000       1.9359890
       4008.6700       2.0071030
       4010.1400       1.8880530
       4011.6100       1.8152580
       4013.0800       1.8747890
       4014.5500       1.9495810
       4016.0200       1.7899720
       4017.4900       1.7462310
       4018.9600       1.7909940
       4020.4300       1.7627030
       4021.9000       1.8208940
       4023.3700       1.8539530
       4024.8400       1.7007370
       4026.3100       1.7193050
       4027.7800       1.8021240
       4029.2500       1.7354500
       4030.7200       1.6762890
       4032.1900       1.6274810
       4033.6600       1.4971920
       4035.1300       1.5917110
       4036.6000       1.7599050
       4038.0700       1.6769400
       4039.5400       1.6338910
       4041.0100       1.6530820
       4042.4800       1.6181870
       4043.9500       1.6032870
       4045.4200       1.5656890
       4046.8900       1.6363800
       4048.3600       1.8237600
       4049.8300       1.7456370
       4051.3000       1.6062290
       4052.7700       1.6455500
       4054.2400       1.6073000
       4055.7100       1.5234500
       4057.1800       1.5446380
       4058.6500       1.6232230
       4060.1200       1.6262870
       4061.5900       1.6855990
       4063.0600       1.5965320
       4064.5300       1.4256350
       4066.0000       1.4735060
       4067.4700       1.5405610
       4068.9400       1.5365630
       4070.4100       1.4149110
       4071.8800       1.3831020
       4073.3500       1.4563330
       4074.8200       1.4360770
       4076.2900       1.4405590
       4077.7600       1.4783090
       4079.2300       1.4049090
       4080.7000       1.4285280
       4082.1700       1.4693990
       4083.6400       1.4379320
       4085.1100       1.4986070
       4086.5800       1.4711620
       4088.0500       1.3578560
       4089.5200       1.3959650
       4090.9900       1.4051690
       4092.4600       1.2674730
       4093.9300       1.2986650
       4095.4000       1.2887030
       4096.8700       1.2788690
       4098.3400       1.2301700
       4099.8100       1.2143910
       4101.2800       1.2690900
       4102.7500       1.2222200
       4104.2200       1.1957460
       4105.6900       1.1917280
       4107.1600       1.1732310
       4108.6300       1.2397060
       4110.1000       1.2531490
       4111.5700       1.2453500
       4113.0400       1.2843530
       4114.5100       1.1956620
       4115.9800       1.0798480
       4117.4500       1.0860940
       4118.9200       1.1125730
       4120.3900       1.0684050
       4121.8600       1.0895530
       4123.3300       1.1624650
       4124.8000       1.1748200
       4126.2700       1.0600840
       4127.7400       1.0500270
       4129.2100       1.1148370
       4130.6800       1.1049960
       4132.1500       1.0029990
       4133.6200       1.0210810
       4135.0900       1.0552110
       4136.5600      0.99295690
       4138.0300      0.93511460
       4139.5000      0.87272630
       4140.9700      0.95839800
       4142.4400       1.0185120
       4143.9100      0.93129690
       4145.3800      0.88271500
       4146.8500      0.94319440
       4148.3200      0.95989570
       4149.7900      0.82400390
       4151.2600      0.82275400
       4152.7300      0.85493910
       4154.2000      0.78911170
       4155.6700      0.78952160
       4157.1400      0.80774920
       4158.6100      0.78934900
       4160.0800      0.82746080
       4161.5500      0.87903390
       4163.0200      0.80478740
       4164.4900      0.75805670
       4165.9600      0.84246180
       4167.4300      0.87497050
       4168.9000      0.77536730
       4170.3700      0.77554820
       4171.8400      0.84000960
       4173.3100      0.85335930
       4174.7800      0.75265700
       4176.2500      0.68871740
       4177.7200      0.76289220
       4179.1900      0.81455980
       4180.6600      0.79774270
       4182.1300      0.78716560
       4183.6000      0.74285640
       4185.0700      0.79935680
       4186.5400      0.90862640
       4188.0100      0.83122560
       4189.4800      0.78539680
       4190.9500      0.80268760
       4192.4200      0.83240320
       4193.8900      0.84553960
       4195.3600      0.80985190
       4196.8300      0.80392580
       4198.3000      0.78013830
       4199.7700      0.75159490
       4201.2400      0.80536300
       4202.7100      0.78366450
       4204.1800      0.68745990
       4205.6500      0.77052350
       4207.1200      0.85925680
       4208.5900      0.84247080
       4210.0600      0.86442860
       4211.5300      0.89072470
       4213.0000      0.96135070
       4214.4700      0.93565960
       4215.9400      0.84164720
       4217.4100      0.89846710
       4218.8800      0.93974460
       4220.3500      0.89211730
       4221.8200      0.87743490
       4223.2900      0.94929010
       4224.7599      0.96684360
       4226.2300      0.95970620
       4227.7000      0.95835970
       4229.1700      0.94408650
       4230.6400      0.99186230
       4232.1100      0.97251930
       4233.5800      0.92595990
       4235.0500      0.92907910
       4236.5200      0.91262010
       4237.9900      0.88220070
       4239.4600      0.88414160
       4240.9300      0.95547560
       4242.4000       1.0299030
       4243.8700      0.98671330
       4245.3400      0.91595560
       4246.8100      0.94585740
       4248.2800      0.97371480
       4249.7500      0.82399860
       4251.2200      0.70322870
       4252.6900      0.79673390
       4254.1600      0.84979690
       4255.6300      0.96450040
       4257.1000      0.93939690
       4258.5700      0.82144780
       4260.0400      0.88263300
       4261.5100      0.92887550
       4262.9800      0.88107860
       4264.4500      0.86177800
       4265.9200      0.89955280
       4267.3900      0.88193950
       4268.8600      0.79692860
       4270.3300      0.89465570
       4271.8000       1.0438220
       4273.2700       1.0549960
       4274.7400      0.94775520
       4276.2100      0.90325140
       4277.6800      0.92559470
       4279.1500      0.92034470
       4280.6200      0.89624510
       4282.0900      0.91945590
       4283.5600      0.88591490
       4285.0300      0.86660580
       4286.5000      0.96411400
       4287.9700      0.94237720
       4289.4400      0.97275700
       4290.9100       1.0387520
       4292.3800      0.96288190
       4293.8500      0.89461850
       4295.3200      0.91030010
       4296.7900      0.94192360
       4298.2600      0.95538700
       4299.7300      0.94334570
       4301.2000      0.89747390
       4302.6700      0.97353370
       4304.1400       1.0621020
       4305.6100       1.0417540
       4307.0800       1.0037030
       4308.5500      0.94989820
       4310.0200      0.86111580
       4311.4900      0.85326880
       4312.9600      0.88674910
       4314.4300      0.91040510
       4315.9000      0.86356880
       4317.3700      0.88832750
       4318.8400      0.95051420
       4320.3100      0.98576170
       4321.7800       1.0044460
       4323.2500      0.99661830
       4324.7200      0.98242570
       4326.1900      0.95599250
       4327.6600      0.93114180
       4329.1300      0.97445990
       4330.6000       1.0325270
       4332.0700       1.0617670
       4333.5400       1.1144900
       4335.0100       1.1419290
       4336.4800       1.1270780
       4337.9500       1.0645000
       4339.4200       1.0082050
       4340.8900       1.0191970
       4342.3600       1.0024910
       4343.8300       1.0708030
       4345.3000       1.0758790
       4346.7700       1.0638920
       4348.2400       1.0908390
       4349.7100       1.0076450
       4351.1800       1.0131860
       4352.6500       1.0065890
       4354.1200       1.0181280
       4355.5900       1.0850520
       4357.0600      0.99143500
       4358.5300      0.93678310
       4360.0000       1.0536160
       4361.4700       1.1419450
       4362.9400       1.1139400
       4364.4100       1.0075940
       4365.8800      0.98808320
       4367.3500       1.0740520
       4368.8200       1.1346060
       4370.2900       1.0401740
       4371.7600      0.95600030
       4373.2300      0.99013290
       4374.7000      0.97987130
       4376.1700       1.0068470
       4377.6400       1.0686490
       4379.1100       1.0285670
       4380.5800       1.0253110
       4382.0500       1.0448480
       4383.5200       1.0495080
       4384.9900       1.0023780
       4386.4600      0.99982400
       4387.9300      0.99256470
       4389.4000      0.95265210
       4390.8700      0.91818000
       4392.3400      0.90454660
       4393.8100       1.0018430
       4395.2800      0.99256630
       4396.7500      0.86106680
       4398.2200      0.91373900
       4399.6900      0.97529810
       4401.1600      0.97796800
       4402.6300      0.96813060
       4404.1000      0.94766070
       4405.5700      0.92727190
       4407.0400      0.92378960
       4408.5100      0.92327390
       4409.9800      0.82510910
       4411.4500      0.85220110
       4412.9200      0.93488240
       4414.3900      0.95106940
       4415.8600       1.0674510
       4417.3300       1.1112530
       4418.8000       1.0271280
       4420.2700      0.95411070
       4421.7400      0.92576700
       4423.2100      0.91943000
       4424.6800      0.90544470
       4426.1500      0.87718200
       4427.6200      0.86931870
       4429.0900      0.93017730
       4430.5600      0.97451590
       4432.0300      0.96500750
       4433.5000      0.95809080
       4434.9700      0.98680520
       4436.4400       1.0476650
       4437.9100       1.0068410
       4439.3800      0.91165080
       4440.8500      0.95513680
       4442.3200      0.94924850
       4443.7900      0.86643320
       4445.2600      0.94175910
       4446.7300       1.0274040
       4448.2000      0.98908250
       4449.6700       1.0052450
       4451.1400       1.0398580
       4452.6100       1.0968140
       4454.0800       1.0707250
       4455.5500       1.0117960
       4457.0200       1.0949170
       4458.4900       1.1383850
       4459.9600       1.1725930
       4461.4300       1.2077620
       4462.9000       1.1656880
       4464.3700       1.1734480
       4465.8400       1.1929620
       4467.3100       1.1952710
       4468.7800       1.2711320
       4470.2500       1.2960280
       4471.7200       1.2343390
       4473.1900       1.2663010
       4474.6600       1.3189580
       4476.1300       1.3183140
       4477.6000       1.3106330
       4479.0700       1.2908420
       4480.5400       1.3364860
       4482.0100       1.3237840
       4483.4800       1.3246970
       4484.9500       1.4739320
       4486.4200       1.4462970
       4487.8900       1.3665720
       4489.3600       1.4339190
       4490.8300       1.4926410
       4492.3000       1.4173930
       4493.7700       1.3606540
       4495.2400       1.3986280
       4496.7100       1.4829160
       4498.1800       1.5177790
       4499.6500       1.4749640
       4501.1200       1.4597010
       4502.5900       1.4047880
       4504.0600       1.4322020
       4505.5300       1.4930860
       4507.0000       1.5064860
       4508.4700       1.5738570
       4509.9400       1.5718710
       4511.4100       1.5229780
       4512.8800       1.6003260
       4514.3500       1.5777380
       4515.8200       1.5077870
       4517.2900       1.6018730
       4518.7600       1.5433450
       4520.2300       1.5351160
       4521.7000       1.6493050
       4523.1700       1.7228830
       4524.6400       1.7031340
       4526.1100       1.7769510
       4527.5800       1.7682690
       4529.0500       1.7077260
       4530.5200       1.7538300
       4531.9900       1.8422320
       4533.4600       1.7566800
       4534.9300       1.7139680
       4536.4000       1.8556620
       4537.8699       1.8697020
       4539.3400       1.9591110
       4540.8100       2.0142970
       4542.2800       1.9845590
       4543.7500       2.0553510
       4545.2200       2.0463970
       4546.6900       2.0381720
       4548.1600       2.0310330
       4549.6300       1.9785850
       4551.1000       2.0409460
       4552.5700       2.1372310
       4554.0400       2.1553350
       4555.5100       2.1686990
       4556.9800       2.1918480
       4558.4500       2.1478560
       4559.9200       2.2493160
       4561.3900       2.2611280
       4562.8600       2.2798730
       4564.3300       2.4034000
       4565.8000       2.3248940
       4567.2700       2.2852080
       4568.7400       2.3136250
       4570.2100       2.4029780
       4571.6800       2.3560830
       4573.1500       2.3998970
       4574.6200       2.5788720
       4576.0900       2.5537910
       4577.5600       2.4453380
       4579.0300       2.4540100
       4580.5000       2.5300970
       4581.9700       2.5995890
       4583.4400       2.5917450
       4584.9100       2.6635530
       4586.3800       2.6437120
       4587.8500       2.5963440
       4589.3200       2.6799330
       4590.7900       2.7324390
       4592.2600       2.7676340
       4593.7300       2.7214260
       4595.2000       2.6531380
       4596.6700       2.6746910
       4598.1400       2.7017270
       4599.6100       2.7210950
       4601.0800       2.7912870
       4602.5500       2.8284180
       4604.0200       2.7547510
       4605.4900       2.6085410
       4606.9600       2.6340430
       4608.4300       2.5897430
       4609.9000       2.6624000
       4611.3700       2.8129280
       4612.8400       2.7059430
       4614.3100       2.6386880
       4615.7800       2.6403830
       4617.2500       2.6769690
       4618.7200       2.7271830
       4620.1900       2.6471710
       4621.6600       2.7140690
       4623.1300       2.7518500
       4624.6000       2.6457930
       4626.0700       2.6723850
       4627.5400       2.7342380
       4629.0100       2.5891810
       4630.4800       2.5412260
       4631.9500       2.6135040
       4633.4200       2.6346430
       4634.8900       2.5953140
       4636.3600       2.5823500
       4637.8300       2.6191100
       4639.3000       2.5569970
       4640.7700       2.4647680
       4642.2400       2.3812590
       4643.7100       2.4779480
       4645.1800       2.4754820
       4646.6500       2.3739120
       4648.1200       2.4239930
       4649.5900       2.5208590
       4651.0600       2.5040820
       4652.5300       2.3789780
       4654.0000       2.3595390
       4655.4700       2.3941200
       4656.9400       2.3559230
       4658.4100       2.4084080
       4659.8800       2.4309170
       4661.3500       2.2658240
       4662.8200       2.2386550
       4664.2900       2.2387990
       4665.7600       2.2358010
       4667.2300       2.2217670
       4668.7000       2.1826800
       4670.1700       2.1788880
       4671.6400       2.1088980
       4673.1100       2.0241930
       4674.5800       2.0364990
       4676.0500       2.0697000
       4677.5200       2.0203870
       4678.9900       2.0459710
       4680.4600       2.0318510
       4681.9300       2.0142690
       4683.4000       1.9722190
       4684.8700       1.9398840
       4686.3400       1.9286490
       4687.8100       1.8865820
       4689.2800       1.9012090
       4690.7500       1.8835450
       4692.2200       1.8734640
       4693.6900       1.8280580
       4695.1600       1.8042320
       4696.6300       1.7939040
       4698.1000       1.7813840
       4699.5700       1.8001360
       4701.0400       1.7572420
       4702.5100       1.7466160
       4703.9800       1.7135190
       4705.4500       1.7336630
       4706.9200       1.7585630
       4708.3900       1.7600500
       4709.8600       1.8434040
       4711.3300       1.8178390
       4712.8000       1.7081570
       4714.2700       1.6722360
       4715.7400       1.7148680
       4717.2100       1.6969980
       4718.6800       1.7244780
       4720.1500       1.7914070
       4721.6200       1.7544630
       4723.0900       1.7661350
       4724.5600       1.8108850
       4726.0300       1.7801480
       4727.5000       1.8225760
       4728.9700       1.8428000
       4730.4400       1.8020650
       4731.9100       1.8242970
       4733.3800       1.7503090
       4734.8500       1.7695790
       4736.3200       1.8159410
       4737.7900       1.7765840
       4739.2600       1.7719980
       4740.7300       1.7656770
       4742.2000       1.8388970
       4743.6700       1.7188890
       4745.1400       1.6330010
       4746.6100       1.7059640
       4748.0800       1.7465680
       4749.5500       1.7654210
       4751.0200       1.7014250
       4752.4900       1.6407020
       4753.9600       1.6124630
       4755.4300       1.6358290
       4756.9000       1.6895850
       4758.3700       1.6504730
       4759.8400       1.6450710
       4761.3100       1.6429960
       4762.7800       1.5596370
       4764.2500       1.5273050
       4765.7200       1.5512770
       4767.1900       1.5803460
       4768.6600       1.5944170
       4770.1300       1.5814240
       4771.6000       1.5246550
       4773.0700       1.5216390
       4774.5400       1.5224660
       4776.0100       1.4579700
       4777.4800       1.5223130
       4778.9500       1.5487880
       4780.4200       1.5352830
       4781.8900       1.5201490
       4783.3600       1.5344740
       4784.8300       1.5272590
       4786.3000       1.4182160
       4787.7700       1.4598420
       4789.2400       1.5385120
       4790.7100       1.4903890
       4792.1800       1.3719470
       4793.6500       1.4528410
       4795.1200       1.5155220
       4796.5900       1.4985230
       4798.0600       1.5178010
       4799.5300       1.4784950
       4801.0000       1.3999310
       4802.4700       1.4261510
       4803.9400       1.5253490
       4805.4100       1.5935860
       4806.8800       1.5963760
       4808.3500       1.5875040
       4809.8200       1.6068670
       4811.2900       1.6235850
       4812.7600       1.6287690
       4814.2300       1.5972810
       4815.7000       1.6093710
       4817.1700       1.6034540
       4818.6400       1.6032380
       4820.1100       1.6842890
       4821.5800       1.7071320
       4823.0500       1.6843120
       4824.5200       1.7485360
       4825.9900       1.7034910
       4827.4600       1.6872650
       4828.9300       1.7941370
       4830.4000       1.8318200
       4831.8700       1.7896710
       4833.3400       1.7791770
       4834.8100       1.7388950
       4836.2800       1.7936210
       4837.7500       1.7981170
       4839.2200       1.7032820
       4840.6900       1.7358560
       4842.1600       1.7843950
       4843.6300       1.7651800
       4845.1000       1.7774910
       4846.5700       1.7011650
       4848.0400       1.6153220
       4849.5100       1.5849250
       4850.9799       1.6736080
       4852.4500       1.7005960
       4853.9200       1.6455280
       4855.3900       1.5554850
       4856.8600       1.5258420
       4858.3300       1.6015870
       4859.8000       1.6110520
       4861.2700       1.6477530
       4862.7400       1.6226500
       4864.2100       1.6329260
       4865.6800       1.6693630
       4867.1500       1.7075920
       4868.6200       1.6449240
       4870.0900       1.6552100
       4871.5600       1.6997310
       4873.0300       1.6202940
       4874.5000       1.6072610
       4875.9700       1.6262340
       4877.4400       1.6178110
       4878.9100       1.6057300
       4880.3800       1.6720580
       4881.8500       1.6548640
       4883.3200       1.5901170
       4884.7900       1.7030260
       4886.2600       1.7040230
       4887.7300       1.5944970
       4889.2000       1.6296690
       4890.6700       1.6296630
       4892.1400       1.6647910
       4893.6100       1.7245120
       4895.0800       1.6980150
       4896.5500       1.7116140
       4898.0200       1.7879280
       4899.4900       1.7650440
       4900.9600       1.7669040
       4902.4300       1.7741390
       4903.9000       1.7616900
       4905.3700       1.8185960
       4906.8400       1.8064780
       4908.3100       1.7836940
       4909.7800       1.8098570
       4911.2500       1.9029690
       4912.7200       1.9842650
       4914.1900       1.9277110
       4915.6600       1.9218450
       4917.1300       1.9123380
       4918.6000       1.8921020
       4920.0700       1.9134700
       4921.5400       2.0132050
       4923.0100       2.1403280
       4924.4800       2.1212830
       4925.9500       2.1364510
       4927.4200       2.1653040
       4928.8900       2.1772710
       4930.3600       2.2871040
       4931.8300       2.2871070
       4933.3000       2.2385870
       4934.7700       2.2823240
       4936.2400       2.3678180
       4937.7100       2.3141370
       4939.1800       2.2899380
       4940.6500       2.3647840
       4942.1200       2.3720480
       4943.5900       2.3621170
       4945.0600       2.3954560
       4946.5300       2.4410400
       4948.0000       2.4543180
       4949.4700       2.4737980
       4950.9400       2.4689740
       4952.4100       2.4513770
       4953.8800       2.4292710
       4955.3500       2.4540720
       4956.8200       2.5092660
       4958.2900       2.4895500
       4959.7600       2.3806460
       4961.2300       2.3239350
       4962.7000       2.4010070
       4964.1700       2.4230660
       4965.6400       2.3859960
       4967.1100       2.3343970
       4968.5800       2.3844770
       4970.0500       2.3573400
       4971.5200       2.3123680
       4972.9900       2.3427390
       4974.4600       2.3201440
       4975.9300       2.2858110
       4977.4000       2.2134700
       4978.8700       2.1635070
       4980.3400       2.1720630
       4981.8100       2.1923450
       4983.2800       2.1481370
       4984.7500       2.1198670
       4986.2200       2.0571380
       4987.6900       1.9806980
       4989.1600       1.9136960
       4990.6300       1.8790400
       4992.1000       1.9242480
       4993.5700       1.9087040
       4995.0400       1.9086230
       4996.5100       1.9844920
       4997.9800       1.8813220
       4999.4500       1.7869900
       5000.9200       1.8304540
       5002.3900       1.8288790
       5003.8600       1.6993840
       5005.3300       1.6729270
       5006.8000       1.7086480
       5008.2700       1.6904920
       5009.7400       1.6624440
       5011.2100       1.6479120
       5012.6800       1.6114530
       5014.1500       1.6066620
       5015.6200       1.5811100
       5017.0900       1.5786300
       5018.5600       1.4904190
       5020.0300       1.5433680
       5021.5000       1.5592770
       5022.9700       1.5612980
       5024.4400       1.5989890
       5025.9100       1.5397440
       5027.3800       1.4845090
       5028.8500       1.5092660
       5030.3200       1.5104440
       5031.7900       1.5564890
       5033.2600       1.4981490
       5034.7300       1.4561260
       5036.2000       1.5561430
       5037.6700       1.5121970
       5039.1400       1.5004220
       5040.6100       1.4223040
       5042.0800       1.3373700
       5043.5500       1.3568350
       5045.0200       1.4248200
       5046.4900       1.4680080
       5047.9600       1.4434140
       5049.4300       1.4595820
       5050.9000       1.4318820
       5052.3700       1.4199770
       5053.8400       1.4190750
       5055.3100       1.4015530
       5056.7800       1.4203580
       5058.2500       1.4022940
       5059.7200       1.4133330
       5061.1900       1.3975930
       5062.6600       1.4120590
       5064.1300       1.4103310
       5065.6000       1.3541640
       5067.0700       1.3785670
       5068.5400       1.4300010
       5070.0100       1.3777890
       5071.4800       1.3855440
       5072.9500       1.4546400
       5074.4200       1.4968280
       5075.8900       1.4258790
       5077.3600       1.3798390
       5078.8300       1.3821890
       5080.3000       1.3922750
       5081.7700       1.4433150
       5083.2400       1.4123220
       5084.7100       1.3554130
       5086.1800       1.4389620
       5087.6500       1.5015190
       5089.1200       1.4791070
       5090.5900       1.5001560
       5092.0600       1.5526380
       5093.5300       1.5488710
       5095.0000       1.4618920
       5096.4700       1.3957580
       5097.9400       1.5032500
       5099.4100       1.5968390
       5100.8800       1.5825700
       5102.3500       1.6409290
       5103.8200       1.6917270
       5105.2900       1.6149780
       5106.7600       1.5893280
       5108.2300       1.6083070
       5109.7000       1.6150670
       5111.1700       1.6517620
       5112.6400       1.6353600
       5114.1100       1.6415580
       5115.5800       1.6664970
       5117.0500       1.6846910
       5118.5200       1.6938400
       5119.9900       1.7337630
       5121.4600       1.7208550
       5122.9300       1.6690930
       5124.4000       1.7406210
       5125.8700       1.7655370
       5127.3400       1.7371640
       5128.8100       1.7876630
       5130.2800       1.7809450
       5131.7500       1.7598250
       5133.2200       1.8513000
       5134.6900       1.8251220
       5136.1600       1.7502060
       5137.6300       1.8635290
       5139.1000       1.8300960
       5140.5700       1.7780440
       5142.0400       1.7796620
       5143.5100       1.8019900
       5144.9800       1.7774380
       5146.4500       1.7697640
       5147.9200       1.8240440
       5149.3900       1.8617590
       5150.8600       1.8613590
       5152.3300       1.8726150
       5153.8000       1.8452010
       5155.2700       1.8851500
       5156.7400       1.9344480
       5158.2100       1.9017630
       5159.6800       1.8746770
       5161.1500       1.7908160
       5162.6200       1.7289610
       5164.0899       1.7805800
       5165.5600       1.8543330
       5167.0300       1.8715600
       5168.5000       1.8725110
       5169.9700       1.8175190
       5171.4400       1.7884290
       5172.9100       1.7859120
       5174.3800       1.8131380
       5175.8500       1.8266060
       5177.3200       1.9030260
       5178.7900       1.9471980
       5180.2600       1.9085950
       5181.7300       1.8722480
       5183.2000       1.8980800
       5184.6700       1.9425330
       5186.1400       1.9567180
       5187.6100       1.9506970
       5189.0800       1.9853810
       5190.5500       1.9610400
       5192.0200       1.9102260
       5193.4900       1.8997620
       5194.9600       1.9059820
       5196.4300       1.9549880
       5197.9000       1.9652090
       5199.3700       1.9376920
       5200.8400       2.0377450
       5202.3100       2.0288910
       5203.7800       1.9217270
       5205.2500       1.9772590
       5206.7200       1.9910600
       5208.1900       1.9705210
       5209.6600       2.0252770
       5211.1300       2.0177920
       5212.6000       2.0127840
       5214.0700       2.0836720
       5215.5400       2.1054520
       5217.0100       2.0170620
       5218.4800       2.0446110
       5219.9500       2.1555010
       5221.4200       2.1335390
       5222.8900       2.0943460
       5224.3600       2.1082890
       5225.8300       2.1604040
       5227.3000       2.1981380
       5228.7700       2.1516310
       5230.2400       2.1587860
       5231.7100       2.1950790
       5233.1800       2.1895110
       5234.6500       2.1826050
       5236.1200       2.2118470
       5237.5900       2.2398380
       5239.0600       2.2718090
       5240.5300       2.2622500
       5242.0000       2.2781700
       5243.4700       2.3602640
       5244.9400       2.4120750
       5246.4100       2.3386990
       5247.8800       2.3193770
       5249.3500       2.3634710
       5250.8200       2.3753670
       5252.2900       2.3978810
       5253.7600       2.3934520
       5255.2300       2.4389550
       5256.7000       2.4707040
       5258.1700       2.4816860
       5259.6400       2.5084490
       5261.1100       2.5184290
       5262.5800       2.4655410
       5264.0500       2.4358540
       5265.5200       2.5621510
       5266.9900       2.6346870
       5268.4600       2.5671930
       5269.9300       2.5405670
       5271.4000       2.5723350
       5272.8700       2.6110880
       5274.3400       2.5625200
       5275.8100       2.5298810
       5277.2800       2.6385650
       5278.7500       2.6767980
       5280.2200       2.6365410
       5281.6900       2.6289610
       5283.1600       2.6761970
       5284.6300       2.7316200
       5286.1000       2.7616130
       5287.5700       2.7872870
       5289.0400       2.7752030
       5290.5100       2.7653340
       5291.9800       2.7456570
       5293.4500       2.7515400
       5294.9200       2.7704110
       5296.3900       2.7744710
       5297.8600       2.7969180
       5299.3300       2.8145840
       5300.8000       2.8320800
       5302.2700       2.8772910
       5303.7400       2.9018090
       5305.2100       2.7920140
       5306.6800       2.8368900
       5308.1500       2.9894180
       5309.6200       2.9792750
       5311.0900       2.9268870
       5312.5600       2.9032050
       5314.0300       2.9995010
       5315.5000       3.0652540
       5316.9700       3.0311590
       5318.4400       3.0322990
       5319.9100       3.0979710
       5321.3800       3.0775310
       5322.8500       3.0442550
       5324.3200       3.1731800
       5325.7900       3.2732360
       5327.2600       3.1848000
       5328.7300       3.1077010
       5330.2000       3.1991940
       5331.6700       3.1830830
       5333.1400       3.0817570
       5334.6100       3.1167350
       5336.0800       3.1647620
       5337.5500       3.2043310
       5339.0200       3.2541020
       5340.4900       3.2147910
       5341.9600       3.1623050
       5343.4300       3.1219590
       5344.9000       3.1605410
       5346.3700       3.1427250
       5347.8400       3.0501170
       5349.3100       3.0824690
       5350.7800       3.1627030
       5352.2500       3.2014840
       5353.7200       3.2082860
       5355.1900       3.1099340
       5356.6600       3.0334570
       5358.1300       3.0369170
       5359.6000       2.9360550
       5361.0700       2.9617160
       5362.5400       2.9528160
       5364.0100       2.8987210
       5365.4800       2.9677200
       5366.9500       3.0178380
       5368.4200       2.9508480
       5369.8900       2.8482640
       5371.3600       2.8605030
       5372.8300       2.8957440
       5374.3000       2.8072120
       5375.7700       2.8265830
       5377.2400       2.8648750
       5378.7100       2.8959440
       5380.1800       2.8941550
       5381.6500       2.8642850
       5383.1200       2.8192550
       5384.5900       2.8247730
       5386.0600       2.8048500
       5387.5300       2.7935850
       5389.0000       2.7968030
       5390.4700       2.7180350
       5391.9400       2.7688700
       5393.4100       2.8579320
       5394.8800       2.8684900
       5396.3500       2.8311560
       5397.8200       2.8560520
       5399.2900       2.8358560
       5400.7600       2.7891730
       5402.2300       2.7936360
       5403.7000       2.8350510
       5405.1700       2.8580450
       5406.6400       2.7733700
       5408.1100       2.8622140
       5409.5800       2.8377280
       5411.0500       2.8193180
       5412.5200       2.8374250
       5413.9900       2.8237350
       5415.4600       2.8766910
       5416.9300       2.8136520
       5418.4000       2.7736670
       5419.8700       2.8325590
       5421.3400       2.8547320
       5422.8100       2.8955340
       5424.2800       2.9497070
       5425.7500       3.0299310
       5427.2200       3.0599880
       5428.6900       2.9983620
       5430.1600       3.1261890
       5431.6300       3.0900510
       5433.1000       3.0246700
       5434.5700       3.0335200
       5436.0400       3.0871820
       5437.5100       3.2108310
       5438.9800       3.2042720
       5440.4500       3.2386410
       5441.9200       3.3197080
       5443.3900       3.2742310
       5444.8600       3.3510980
       5446.3300       3.5150110
       5447.8000       3.5182040
       5449.2700       3.5237170
       5450.7400       3.6147680
       5452.2100       3.6390570
       5453.6800       3.5380740
       5455.1500       3.5073860
       5456.6200       3.6445390
       5458.0900       3.7083740
       5459.5600       3.6965580
       5461.0300       3.7762920
       5462.5000       3.8058130
       5463.9700       3.8755490
       5465.4400       3.8662040
       5466.9100       3.8738710
       5468.3800       3.8192030
       5469.8500       3.7874360
       5471.3200       3.9197920
       5472.7900       3.9536350
       5474.2600       3.9569930
       5475.7300       3.9975230
       5477.2000       4.0055030
       5478.6700       4.0543500
       5480.1400       4.0976100
       5481.6100       3.9864870
       5483.0800       3.9695610
       5484.5500       4.0508710
       5486.0200       4.1438100
       5487.4900       4.0364760
       5488.9600       3.9829540
       5490.4300       4.0295220
       5491.9000       4.0474470
       5493.3700       4.0665670
       5494.8400       4.0481300
       5496.3100       3.9557290
       5497.7800       3.9410080
       5499.2500       4.0682800
       5500.7200       4.0252990
       5502.1900       3.9723050
       5503.6600       3.9964760
       5505.1300       3.9132650
       5506.6000       3.8805630
       5508.0700       3.8859570
       5509.5400       3.9231750
       5511.0100       3.9089210
       5512.4800       3.9881870
       5513.9500       3.9086070
       5515.4200       3.8371840
       5516.8900       3.8562930
       5518.3600       3.7939090
       5519.8300       3.7926260
       5521.3000       3.8845310
       5522.7700       3.8485810
       5524.2400       3.8071230
       5525.7100       3.7658910
       5527.1800       3.7312490
       5528.6500       3.6202770
       5530.1200       3.6231800
       5531.5900       3.7338510
       5533.0600       3.6896000
       5534.5300       3.5733250
       5536.0000       3.4892160
       5537.4700       3.5441150
       5538.9400       3.5408750
       5540.4100       3.5477760
       5541.8800       3.5419300
       5543.3500       3.5087440
       5544.8200       3.4364170
       5546.2900       3.4308520
       5547.7600       3.5459170
       5549.2300       3.5561760
       5550.7000       3.4707580
       5552.1700       3.4495090
       5553.6400       3.4900590
       5555.1100       3.4226600
       5556.5800       3.4362410
       5558.0500       3.5055650
       5559.5200       3.4101730
       5560.9900       3.4390960
       5562.4600       3.4791780
       5563.9300       3.4344120
       5565.4000       3.4892840
       5566.8700       3.5148360
       5568.3400       3.4301960
       5569.8100       3.3945120
       5571.2800       3.4400430
       5572.7500       3.4065720
       5574.2200       3.4734970
       5575.6900       3.7054890
       5577.1600       3.6449710
       5578.6300       3.5095560
       5580.1000       3.5252140
       5581.5700       3.5252350
       5583.0400       3.6065250
       5584.5100       3.6941880
       5585.9800       3.7149610
       5587.4500       3.6957670
       5588.9200       3.6391860
       5590.3900       3.6430910
       5591.8600       3.7143380
       5593.3300       3.7385010
       5594.8000       3.7796840
       5596.2700       3.8134230
       5597.7400       3.7737730
       5599.2100       3.7618760
       5600.6800       3.8828870
       5602.1500       3.9783500
       5603.6200       3.9625440
       5605.0900       3.9472920
       5606.5600       3.8959610
       5608.0300       3.9006890
       5609.5000       3.9453080
       5610.9700       4.0020550
       5612.4400       4.0594980
       5613.9100       4.0716400
       5615.3800       4.0671960
       5616.8500       4.0078960
       5618.3200       4.0868270
       5619.7900       4.1525850
       5621.2600       4.1668240
       5622.7300       4.1862810
       5624.2000       4.2075550
       5625.6700       4.2940520
       5627.1400       4.2997470
       5628.6100       4.2305680
       5630.0800       4.1969530
       5631.5500       4.2246050
       5633.0200       4.2323480
       5634.4900       4.2554460
       5635.9600       4.2730070
       5637.4300       4.1560900
       5638.9000       4.1258890
       5640.3700       4.1202590
       5641.8400       4.0451570
       5643.3100       4.0257370
       5644.7800       4.0929850
       5646.2500       4.0836750
       5647.7200       4.1126410
       5649.1900       4.1810800
       5650.6600       4.0517890
       5652.1300       4.0438520
       5653.6000       4.0820910
       5655.0700       4.1514590
       5656.5400       4.1820900
       5658.0100       4.0226820
       5659.4800       4.0256960
       5660.9500       3.9489880
       5662.4200       3.8261340
       5663.8900       3.7837410
       5665.3600       3.7074590
       5666.8300       3.6801250
       5668.3000       3.7315170
       5669.7700       3.7048730
       5671.2400       3.6763150
       5672.7100       3.6708650
       5674.1800       3.6086650
       5675.6500       3.5094640
       5677.1200       3.5453330
       5678.5900       3.5545950
       5680.0600       3.4787210
       5681.5300       3.3753660
       5683.0000       3.4667790
       5684.4700       3.4222880
       5685.9400       3.3011210
       5687.4100       3.3516010
       5688.8800       3.3523730
       5690.3500       3.1605120
       5691.8200       3.0610790
       5693.2900       3.1127420
       5694.7600       3.1797520
       5696.2300       3.1895360
       5697.7000       3.1049170
       5699.1700       3.0212500
       5700.6400       3.0356720
       5702.1100       2.9791090
       5703.5800       3.0730350
       5705.0500       3.1632300
       5706.5200       2.9666580
       5707.9900       2.9166590
       5709.4600       2.9214500
       5710.9300       2.8523740
       5712.4000       2.8978600
       5713.8700       2.8738420
       5715.3400       2.9338330
       5716.8100       2.8902000
       5718.2800       2.7201720
       5719.7500       2.7650630
       5721.2200       2.8702910
       5722.6900       2.8495790
       5724.1600       2.7787540
       5725.6300       2.6952720
       5727.1000       2.7188180
       5728.5700       2.7486700
       5730.0400       2.7974230
       5731.5100       2.8582500
       5732.9800       2.8644930
       5734.4500       2.8696760
       5735.9200       2.8049070
       5737.3900       2.8090710
       5738.8600       2.8155600
       5740.3300       2.8300730
       5741.8000       2.8619520
       5743.2700       2.8416190
       5744.7400       2.8018220
       5746.2100       2.8339220
       5747.6800       2.9090860
       5749.1500       2.8191200
       5750.6200       2.7832840
       5752.0900       2.7364800
       5753.5600       2.7495860
       5755.0300       2.7910270
       5756.5000       2.7417080
       5757.9700       2.7410300
       5759.4400       2.6919110
       5760.9100       2.6847200
       5762.3800       2.6713390
       5763.8500       2.6873790
       5765.3200       2.7076210
       5766.7900       2.7553330
       5768.2600       2.7817450
       5769.7300       2.8208340
       5771.2000       2.7890780
       5772.6700       2.7336540
       5774.1400       2.7518200
       5775.6100       2.8128680
       5777.0800       2.8405200
       5778.5500       2.8316410
       5780.0200       2.8055030
       5781.4900       2.7966300
       5782.9600       2.7126390
       5784.4300       2.7109920
       5785.9000       2.7485490
       5787.3700       2.7049700
       5788.8400       2.7568190
       5790.3100       2.7705160
       5791.7800       2.7410840
       5793.2500       2.7848880
       5794.7200       2.7631160
       5796.1900       2.6964350
       5797.6600       2.7157900
       5799.1300       2.7882150
       5800.6000       2.9079010
       5802.0700       2.9449570
       5803.5400       2.8692900
       5805.0100       2.7940850
       5806.4800       2.8068200
       5807.9500       2.7886710
       5809.4200       2.8086330
       5810.8900       2.9048690
       5812.3600       2.9450830
       5813.8300       3.0040630
       5815.3000       3.0815040
       5816.7700       3.1654470
       5818.2400       3.1236850
       5819.7100       3.0440260
       5821.1800       3.0655850
       5822.6500       3.0932080
       5824.1200       3.1349210
       5825.5900       3.1629950
       5827.0600       3.2539650
       5828.5300       3.2965830
       5830.0000       3.2579620
       5831.4700       3.3521280
       5832.9400       3.4123360
       5834.4100       3.3668580
       5835.8800       3.4093400
       5837.3500       3.5342000
       5838.8200       3.4918020
       5840.2900       3.3587440
       5841.7600       3.3952210
       5843.2300       3.4447110
       5844.7000       3.4628230
       5846.1700       3.5264350
       5847.6400       3.5076940
       5849.1100       3.5219230
       5850.5800       3.6186550
       5852.0500       3.5655040
       5853.5200       3.5640890
       5854.9900       3.5208250
       5856.4600       3.5386970
       5857.9300       3.6231270
       5859.4000       3.5651150
       5860.8700       3.5415600
       5862.3400       3.5580620
       5863.8100       3.5933790
       5865.2800       3.7018850
       5866.7500       3.6625340
       5868.2200       3.5183370
       5869.6900       3.5165530
       5871.1600       3.5552200
       5872.6300       3.5620590
       5874.1000       3.5889600
       5875.5700       3.5645910
       5877.0400       3.6254440
       5878.5100       3.5389860
       5879.9800       3.4504690
       5881.4500       3.5282070
       5882.9200       3.4767880
       5884.3900       3.3348420
       5885.8600       3.3464350
       5887.3300       3.3945130
       5888.8000       3.4878840
       5890.2700       3.4254500
       5891.7400       3.3840630
       5893.2100       3.4708840
       5894.6800       3.3544370
       5896.1500       3.4631720
       5897.6200       3.5299340
       5899.0900       3.4135170
       5900.5600       3.3854210
       5902.0300       3.5385470
       5903.5000       3.5709460
       5904.9700       3.5004510
       5906.4400       3.5398680
       5907.9100       3.5234670
       5909.3800       3.5408630
       5910.8500       3.6271530
       5912.3200       3.6183390
       5913.7900       3.5563630
       5915.2600       3.3501150
       5916.7300       3.3024490
       5918.2000       3.4330090
       5919.6700       3.4423060
       5921.1400       3.3469080
       5922.6100       3.3926780
       5924.0800       3.4719510
       5925.5500       3.4415750
       5927.0200       3.4559440
       5928.4900       3.5274810
       5929.9600       3.4634500
       5931.4300       3.3951180
       5932.9000       3.4842940
       5934.3700       3.4821070
       5935.8400       3.4710980
       5937.3100       3.4436980
       5938.7800       3.4479760
       5940.2500       3.4656500
       5941.7200       3.4243770
       5943.1900       3.4707440
       5944.6600       3.4839230
       5946.1300       3.4025240
       5947.6000       3.3923470
       5949.0700       3.4461350
       5950.5400       3.4265780
       5952.0100       3.3685150
       5953.4800       3.4270170
       5954.9500       3.4344450
       5956.4200       3.3438350
       5957.8900       3.3754590
       5959.3600       3.3651400
       5960.8300       3.3129890
       5962.3000       3.3253190
       5963.7700       3.3390980
       5965.2400       3.4045720
       5966.7100       3.3872710
       5968.1800       3.3383690
       5969.6500       3.2631440
       5971.1200       3.2834290
       5972.5900       3.3097820
       5974.0600       3.3046980
       5975.5300       3.3352620
       5977.0001       3.2124840
       5978.4700       3.1442650
       5979.9400       3.1360310
       5981.4100       3.1529540
       5982.8800       3.1859880
       5984.3500       3.1831960
       5985.8200       3.1462380
       5987.2900       3.1212330
       5988.7600       3.1158230
       5990.2300       3.1367560
       5991.7000       3.1539920
       5993.1700       3.1824710
       5994.6400       3.0595970
       5996.1100       3.0016650
       5997.5800       3.0890830
       5999.0500       3.1037170
       6000.5200       3.0236530
       6001.9900       3.0143910
       6003.4600       3.0204270
       6004.9300       3.0113180
       6006.4000       3.0218610
       6007.8700       3.0096580
       6009.3400       3.0155070
       6010.8100       2.9476890
       6012.2800       2.8842760
       6013.7500       2.9174710
       6015.2200       2.9085850
       6016.6900       2.9564150
       6018.1600       2.8990770
       6019.6300       2.7898360
       6021.1000       2.8558680
       6022.5700       2.9473750
       6024.0400       2.9650720
       6025.5100       2.9908530
       6026.9800       2.9464240
       6028.4500       2.8501590
       6029.9200       2.7912390
       6031.3900       2.7512110
       6032.8600       2.7989270
       6034.3300       2.8573370
       6035.8000       2.8470390
       6037.2700       2.8009930
       6038.7400       2.7919500
       6040.2100       2.8096290
       6041.6800       2.8103590
       6043.1500       2.7916600
       6044.6200       2.7975220
       6046.0900       2.8421840
       6047.5600       2.8741770
       6049.0300       2.8149000
       6050.5000       2.7419940
       6051.9700       2.7383000
       6053.4400       2.7286600
       6054.9100       2.7074220
       6056.3800       2.7447670
       6057.8500       2.7304580
       6059.3200       2.7937500
       6060.7900       2.8436330
       6062.2600       2.7721410
       6063.7300       2.6557450
       6065.2000       2.6585120
       6066.6700       2.6699320
       6068.1400       2.6719430
       6069.6100       2.6921890
       6071.0800       2.6554280
       6072.5500       2.6229850
       6074.0200       2.6718920
       6075.4900       2.7004020
       6076.9600       2.6515800
       6078.4300       2.6484330
       6079.9000       2.7235010
       6081.3700       2.6904060
       6082.8400       2.6317900
       6084.3100       2.5455540
       6085.7800       2.5805810
       6087.2500       2.6982730
       6088.7200       2.6831170
       6090.1900       2.6194870
       6091.6600       2.6527290
       6093.1300       2.6396990
       6094.6000       2.5675640
       6096.0700       2.5758490
       6097.5400       2.6029730
       6099.0100       2.7082360
       6100.4800       2.6260490
       6101.9500       2.6562640
       6103.4200       2.6135700
       6104.8900       2.5450950
       6106.3600       2.5411760
       6107.8300       2.6409680
       6109.3000       2.7012910
       6110.7700       2.6293250
       6112.2400       2.5763130
       6113.7100       2.6559300
       6115.1800       2.6141610
       6116.6500       2.6043850
       6118.1200       2.6305820
       6119.5900       2.7023910
       6121.0600       2.6991610
       6122.5300       2.7014070
       6124.0000       2.7163850
       6125.4700       2.7069860
       6126.9400       2.7581450
       6128.4100       2.6937060
       6129.8800       2.7511790
       6131.3500       2.8764920
       6132.8200       2.8397620
       6134.2900       2.8792190
       6135.7600       2.7521950
       6137.2300       2.7233410
       6138.7000       2.8801130
       6140.1700       2.8307750
       6141.6400       2.8214230
       6143.1100       2.9227770
       6144.5800       2.9403240
       6146.0500       2.9285890
       6147.5200       2.9533780
       6148.9900       2.9267900
       6150.4600       3.0096110
       6151.9300       2.9701830
       6153.4000       3.0227150
       6154.8700       2.9617470
       6156.3400       2.9724920
       6157.8100       3.0269160
       6159.2800       3.0590830
       6160.7500       3.0334470
       6162.2200       3.0135940
       6163.6900       3.0563100
       6165.1600       3.0876440
       6166.6300       3.1486830
       6168.1000       3.1240180
       6169.5700       3.1177290
       6171.0400       3.2203640
       6172.5100       3.2437510
       6173.9800       3.2349990
       6175.4500       3.1997520
       6176.9200       3.0996750
       6178.3900       3.1527660
       6179.8600       3.2314250
       6181.3300       3.2223020
       6182.8000       3.1040450
       6184.2700       3.1689200
       6185.7400       3.2279540
       6187.2100       3.1958840
       6188.6800       3.1742470
       6190.1500       3.1279270
       6191.6200       3.1124730
       6193.0900       3.1155400
       6194.5600       3.1290300
       6196.0300       3.1901220
       6197.5000       3.1116910
       6198.9700       3.0548080
       6200.4400       3.0368080
       6201.9100       3.0430370
       6203.3800       3.0820300
       6204.8500       3.0849630
       6206.3200       3.0750840
       6207.7900       3.1217600
       6209.2600       3.0450140
       6210.7300       2.9062670
       6212.2000       2.9221060
       6213.6700       3.0011330
       6215.1400       2.9657400
       6216.6100       2.8902560
       6218.0800       2.9292230
       6219.5500       2.9434000
       6221.0200       2.9344640
       6222.4900       2.9575080
       6223.9600       2.8762450
       6225.4300       2.8974160
       6226.9000       2.9497240
       6228.3700       2.8874960
       6229.8400       2.8160520
       6231.3100       2.8309790
       6232.7800       2.8700070
       6234.2500       2.8373960
       6235.7200       2.8730490
       6237.1900       2.8727770
       6238.6600       2.8442630
       6240.1300       2.8359170
       6241.6000       2.7800780
       6243.0700       2.7962970
       6244.5400       2.8515290
       6246.0100       2.7986540
       6247.4800       2.7647880
       6248.9500       2.7794030
       6250.4200       2.7576860
       6251.8900       2.7745590
       6253.3600       2.7509650
       6254.8300       2.7080460
       6256.3000       2.6924890
       6257.7700       2.6576140
       6259.2400       2.6930410
       6260.7100       2.7596780
       6262.1800       2.7415510
       6263.6500       2.7357760
       6265.1200       2.7494470
       6266.5900       2.6565300
       6268.0600       2.6232180
       6269.5300       2.6198320
       6271.0000       2.6037280
       6272.4700       2.6324130
       6273.9400       2.6653950
       6275.4100       2.6615280
       6276.8800       2.6807050
       6278.3500       2.6159940
       6279.8200       2.6183800
       6281.2900       2.6894600
       6282.7600       2.6121800
       6284.2300       2.5713200
       6285.7000       2.5769440
       6287.1700       2.6763150
       6288.6400       2.6657540
       6290.1101       2.5391000
       6291.5800       2.4803430
       6293.0500       2.5112950
       6294.5200       2.4787740
       6295.9900       2.4526310
       6297.4600       2.4621050
       6298.9300       2.5700860
       6300.4000       2.5399400
       6301.8700       2.5698910
       6303.3400       2.6766200
       6304.8100       2.5517290
       6306.2800       2.5044860
       6307.7500       2.5491070
       6309.2200       2.4573310
       6310.6900       2.4484940
       6312.1600       2.4221680
       6313.6300       2.4404300
       6315.1000       2.4158630
       6316.5700       2.4687150
       6318.0400       2.4447160
       6319.5100       2.5357950
       6320.9800       2.5345330
       6322.4500       2.4743840
       6323.9200       2.4830270
       6325.3900       2.4394910
       6326.8600       2.4299550
       6328.3300       2.4235190
       6329.8000       2.4338780
       6331.2700       2.4920650
       6332.7400       2.5813190
       6334.2100       2.5604940
       6335.6800       2.5076120
       6337.1500       2.4647220
       6338.6200       2.4474660
       6340.0900       2.5725360
       6341.5600       2.5019800
       6343.0300       2.4656090
       6344.5000       2.5601630
       6345.9700       2.5446070
       6347.4400       2.6066270
       6348.9100       2.5852740
       6350.3800       2.5010430
       6351.8500       2.5638380
       6353.3200       2.5109180
       6354.7900       2.5884310
       6356.2600       2.6871750
       6357.7300       2.6093810
       6359.2000       2.5270280
       6360.6700       2.6111820
       6362.1400       2.6386780
       6363.6100       2.6168190
       6365.0800       2.6223390
       6366.5500       2.5842100
       6368.0200       2.6509760
       6369.4900       2.6919150
       6370.9600       2.6964020
       6372.4300       2.6717240
       6373.9000       2.6499750
       6375.3700       2.6227310
       6376.8400       2.6336040
       6378.3100       2.7090960
       6379.7800       2.6341040
       6381.2500       2.6034420
       6382.7200       2.6167940
       6384.1900       2.6804850
       6385.6600       2.7239430
       6387.1300       2.7772570
       6388.6000       2.8408710
       6390.0700       2.8219600
       6391.5400       2.7517880
       6393.0100       2.8287700
       6394.4800       2.8413620
       6395.9500       2.7900190
       6397.4200       2.7735760
       6398.8900       2.8232290
       6400.3600       2.8657310
       6401.8300       2.8651860
       6403.3000       2.8088220
       6404.7700       2.8177760
       6406.2400       2.8646400
       6407.7100       2.8772540
       6409.1800       2.8942900
       6410.6500       2.9454460
       6412.1200       2.9289280
       6413.5900       2.9639440
       6415.0600       3.0065320
       6416.5300       3.0023580
       6418.0000       3.0450190
       6419.4700       3.0833080
       6420.9400       3.0743480
       6422.4100       3.0007970
       6423.8800       2.9996870
       6425.3500       3.0692050
       6426.8200       3.0580930
       6428.2900       3.0680240
       6429.7600       3.1855400
       6431.2300       3.2052920
       6432.7000       3.1844930
       6434.1700       3.2621140
       6435.6400       3.2864350
       6437.1100       3.2284660
       6438.5800       3.1803460
       6440.0500       3.1601180
       6441.5200       3.1731690
       6442.9900       3.2172190
       6444.4600       3.2452100
       6445.9300       3.2194610
       6447.4000       3.1865630
       6448.8700       3.2173490
       6450.3400       3.1894870
       6451.8100       3.2105570
       6453.2800       3.3171060
       6454.7500       3.3450900
       6456.2200       3.3386300
       6457.6900       3.3339920
       6459.1600       3.2798090
       6460.6300       3.2359000
       6462.1000       3.3232620
       6463.5700       3.3090840
       6465.0400       3.2638530
       6466.5100       3.2667580
       6467.9800       3.3429380
       6469.4500       3.4187110
       6470.9200       3.3750880
       6472.3900       3.3102700
       6473.8600       3.3353950
       6475.3300       3.3798380
       6476.8000       3.4008520
       6478.2700       3.4483970
       6479.7400       3.3920250
       6481.2100       3.2932130
       6482.6800       3.2896960
       6484.1500       3.3346140
       6485.6200       3.2728540
       6487.0900       3.3303620
       6488.5600       3.3611410
       6490.0300       3.2984340
       6491.5000       3.2767710
       6492.9700       3.2672960
       6494.4400       3.3873790
       6495.9100       3.3603510
       6497.3800       3.3331280
       6498.8500       3.3385520
       6500.3200       3.4502430
       6501.7900       3.3789500
       6503.2600       3.2246010
       6504.7300       3.2955870
       6506.2000       3.3500500
       6507.6700       3.4250650
       6509.1400       3.5065990
       6510.6100       3.4340360
       6512.0800       3.4397920
       6513.5500       3.4853110
       6515.0200       3.4568490
       6516.4900       3.3628970
       6517.9600       3.3115820
       6519.4300       3.4054840
       6520.9000       3.4406890
       6522.3700       3.4712050
       6523.8400       3.3386720
       6525.3100       3.4029640
       6526.7800       3.4313370
       6528.2500       3.4509340
       6529.7200       3.3887700
       6531.1900       3.3511720
       6532.6600       3.4791290
       6534.1300       3.5103340
       6535.6000       3.5003640
       6537.0700       3.5441130
       6538.5400       3.6337930
       6540.0100       3.5547510
       6541.4800       3.5290230
       6542.9500       3.4996290
       6544.4200       3.5351660
       6545.8900       3.4801900
       6547.3600       3.5724850
       6548.8300       3.4585200
       6550.3000       3.5141250
       6551.7700       3.5910260
       6553.2400       3.6104910
       6554.7100       3.5301860
       6556.1800       3.4513480
       6557.6500       3.4297680
       6559.1200       3.4109690
       6560.5900       3.3893090
       6562.0600       3.4711040
       6563.5300       3.4249350
       6565.0000       3.3516890
       6566.4700       3.3929060
       6567.9400       3.3974750
       6569.4100       3.4980170
       6570.8800       3.4431900
       6572.3500       3.4346370
       6573.8200       3.4764440
       6575.2900       3.5482990
       6576.7600       3.4721760
       6578.2300       3.4231870
       6579.7000       3.4339800
       6581.1700       3.4957640
       6582.6400       3.4981540
       6584.1100       3.3984650
       6585.5800       3.3393200
       6587.0500       3.3819230
       6588.5200       3.4929970
       6589.9900       3.5614960
       6591.4600       3.6925290
       6592.9300       3.7230700
       6594.4000       3.7307120
       6595.8700       3.6520510
       6597.3400       3.5293360
       6598.8100       3.4910680
       6600.2800       3.4920340
       6601.7500       3.5164910
       6603.2201       3.4870650
       6604.6900       3.4709870
       6606.1600       3.3825030
       6607.6300       3.4128140
       6609.1000       3.4290170
       6610.5700       3.5313050
       6612.0400       3.6055290
       6613.5100       3.4929330
       6614.9800       3.5278240
       6616.4500       3.5776190
       6617.9200       3.4964650
       6619.3900       3.4501730
       6620.8600       3.4082540
       6622.3300       3.4452240
       6623.8000       3.5376130
       6625.2700       3.4861750
       6626.7400       3.3969350
       6628.2100       3.4608090
       6629.6800       3.5081160
       6631.1500       3.5362420
       6632.6200       3.5512780
       6634.0900       3.3543650
       6635.5600       3.3957600
       6637.0300       3.4983320
       6638.5000       3.4352840
       6639.9700       3.5033380
       6641.4400       3.4537470
       6642.9100       3.3717110
       6644.3800       3.4308290
       6645.8500       3.4396540
       6647.3200       3.4187220
       6648.7900       3.3945170
       6650.2600       3.4119550
       6651.7300       3.4301560
       6653.2000       3.4128360
       6654.6700       3.4075680
       6656.1400       3.4021670
       6657.6100       3.4334770
       6659.0800       3.4119280
       6660.5500       3.4132010
       6662.0200       3.3931990
       6663.4900       3.3580310
       6664.9600       3.3948250
       6666.4300       3.3877570
       6667.9000       3.3506930
       6669.3700       3.2726170
       6670.8400       3.2132390
       6672.3100       3.2201180
       6673.7800       3.1993640
       6675.2500       3.1868000
       6676.7200       3.1097970
       6678.1900       3.1818590
       6679.6600       3.3608150
       6681.1300       3.3019690
       6682.6000       3.2411900
       6684.0700       3.2143230
       6685.5400       3.1234270
       6687.0100       3.1415470
       6688.4800       3.1645980
       6689.9500       3.1989930
       6691.4200       3.1962240
       6692.8900       3.0952170
       6694.3600       3.1009350
       6695.8300       3.1784200
       6697.3000       3.1669480
       6698.7700       3.1265360
       6700.2400       3.0548090
       6701.7100       3.0900640
       6703.1800       3.0718540
       6704.6500       3.0343940
       6706.1200       3.1388690
       6707.5900       3.1842270
       6709.0600       3.1748460
       6710.5300       3.1843790
       6712.0000       3.2128700
       6713.4700       3.2346120
       6714.9400       3.1141510
       6716.4100       3.1053340
       6717.8800       3.0906370
       6719.3500       3.1860090
       6720.8200       3.2105700
       6722.2900       3.1560180
       6723.7600       3.1638050
       6725.2300       3.1053720
       6726.7000       3.1311080
       6728.1700       3.1856530
       6729.6400       3.1782950
       6731.1100       3.1584100
       6732.5800       3.2491380
       6734.0500       3.1742150
       6735.5200       3.1993870
       6736.9900       3.1394550
       6738.4600       3.0594570
       6739.9300       3.1962890
       6741.4000       3.2694220
       6742.8700       3.1138200
       6744.3400       3.1005600
       6745.8100       3.1924850
       6747.2800       3.2106160
       6748.7500       3.2093250
       6750.2200       3.2193130
       6751.6900       3.1897540
       6753.1600       3.2465570
       6754.6300       3.2823010
       6756.1000       3.2821390
       6757.5700       3.2666260
       6759.0400       3.3303150
       6760.5100       3.2763080
       6761.9800       3.2178610
       6763.4500       3.2301290
       6764.9200       3.1577410
       6766.3900       3.1341730
       6767.8600       3.2207150
       6769.3300       3.1855950
       6770.8000       3.1916660
       6772.2700       3.1987340
       6773.7400       3.0895350
       6775.2100       3.1189390
       6776.6800       3.1247180
       6778.1500       3.1921070
       6779.6200       3.1520390
       6781.0900       3.1286300
       6782.5600       3.0846070
       6784.0300       3.0679070
       6785.5000       3.1402570
       6786.9700       3.0850560
       6788.4400       3.0085470
       6789.9100       2.9825220
       6791.3800       3.0423500
       6792.8500       2.9678120
       6794.3200       3.0041810
       6795.7900       3.0646800
       6797.2600       2.9519460
       6798.7300       2.8897410
       6800.2000       2.8685770
       6801.6700       2.9144250
       6803.1400       2.9799440
       6804.6100       2.9765240
       6806.0800       2.9450520
       6807.5500       2.8822220
       6809.0200       2.7909930
       6810.4900       2.8011820
       6811.9600       2.8260590
       6813.4300       2.7974800
       6814.9000       2.7710440
       6816.3700       2.7819350
       6817.8400       2.7760070
       6819.3100       2.8768240
       6820.7800       2.8837540
       6822.2500       2.7464900
       6823.7200       2.7794180
       6825.1900       2.7586840
       6826.6600       2.7235300
       6828.1300       2.6347290
       6829.6000       2.6501910
       6831.0700       2.7088110
       6832.5400       2.6674440
       6834.0100       2.6422440
       6835.4800       2.6388050
       6836.9500       2.6127150
       6838.4200       2.7036820
       6839.8900       2.7005000
       6841.3600       2.6547510
       6842.8300       2.6756190
       6844.3000       2.7812240
       6845.7700       2.6990630
       6847.2400       2.5822570
       6848.7100       2.5833630
       6850.1800       2.5157610
       6851.6500       2.5733520
       6853.1200       2.6388120
       6854.5900       2.6223990
       6856.0600       2.5367690
       6857.5300       2.4409530
       6859.0000       2.4499250
       6860.4700       2.5497750
       6861.9400       2.6155270
       6863.4100       2.6168840
       6864.8800       2.6651350
       6866.3500       2.6612200
       6867.8200       2.4949820
       6869.2900       2.4055680
       6870.7600       2.5355280
       6872.2300       2.6320980
       6873.7000       2.5687890
       6875.1700       2.5614030
       6876.6400       2.6189680
       6878.1100       2.6001120
       6879.5800       2.5473800
       6881.0500       2.5472200
       6882.5200       2.6123820
       6883.9900       2.5799830
       6885.4600       2.5206680
       6886.9300       2.5520550
       6888.4000       2.5057170
       6889.8700       2.4614180
       6891.3400       2.5611880
       6892.8100       2.6438890
       6894.2800       2.5875710
       6895.7500       2.5616760
       6897.2200       2.5887790
       6898.6900       2.5940730
       6900.1600       2.5814050
       6901.6300       2.5781680
       6903.1000       2.5837810
       6904.5700       2.5619430
       6906.0400       2.6542110
       6907.5100       2.7059740
       6908.9800       2.6139450
       6910.4500       2.6057850
       6911.9200       2.6637480
       6913.3900       2.6486350
       6914.8600       2.5999370
       6916.3301       2.6253650
       6917.8000       2.5783270
       6919.2700       2.5874180
       6920.7400       2.5884130
       6922.2100       2.5255760
       6923.6800       2.5857300
       6925.1500       2.6708400
       6926.6200       2.6792320
       6928.0900       2.7166610
       6929.5600       2.7586820
       6931.0300       2.7640300
       6932.5000       2.7500230
       6933.9700       2.7766560
       6935.4400       2.8192240
       6936.9100       2.8404610
       6938.3800       2.8004460
       6939.8500       2.7922800
       6941.3200       2.7879280
       6942.7900       2.7911130
       6944.2600       2.8318320
       6945.7300       2.7982390
       6947.2000       2.7784230
       6948.6700       2.8514540
       6950.1400       2.8050530
       6951.6100       2.7453260
       6953.0800       2.8095660
       6954.5500       2.8776520
       6956.0200       2.8362570
       6957.4900       2.8836310
       6958.9600       2.8883390
       6960.4300       2.8139340
       6961.9000       2.8369610
       6963.3700       2.8245740
       6964.8400       2.8511800
       6966.3100       2.8713530
       6967.7800       2.8753360
       6969.2500       2.7622440
       6970.7200       2.8103310
       6972.1900       2.9507730
       6973.6600       2.9021760
       6975.1300       2.8430860
       6976.6000       2.7915140
       6978.0700       2.7230250
       6979.5400       2.7823930
       6981.0100       2.7638000
       6982.4800       2.8214960
       6983.9500       2.8628980
       6985.4200       2.8296910
       6986.8900       2.7249570
       6988.3600       2.7835830
       6989.8300       2.7978090
       6991.3000       2.8041160
       6992.7700       2.7257490
       6994.2400       2.6896590
       6995.7100       2.7148510
       6997.1800       2.7712900
       6998.6500       2.7973560
       7000.1200       2.6765450
       7001.5900       2.5529270
       7003.0600       2.6283830
       7004.5300       2.6809340
       7006.0000       2.6365710
       7007.4700       2.6313400
       7008.9400       2.6310580
       7010.4100       2.6508040
       7011.8800       2.6762440
       7013.3500       2.5919950
       7014.8200       2.6010980
       7016.2900       2.7257580
       7017.7600       2.8751300
       7019.2300       2.6312000
       7020.7000       2.4735230
       7022.1700       2.5482510
       7023.6400       2.5755880
       7025.1100       2.6209720
       7026.5800       2.5663830
       7028.0500       2.5986830
       7029.5200       2.6281510
       7030.9900       2.5794390
       7032.4600       2.4731060
       7033.9300       2.4914480
       7035.4000       2.4877710
       7036.8700       2.5483420
       7038.3400       2.4850420
       7039.8100       2.5658890
       7041.2800       2.5247330
       7042.7500       2.5576710
       7044.2200       2.5274360
       7045.6900       2.4322690
       7047.1600       2.5825970
       7048.6300       2.6314370
       7050.1000       2.5218320
       7051.5700       2.5178120
       7053.0400       2.4833700
       7054.5100       2.5114500
       7055.9800       2.4862080
       7057.4500       2.4884720
       7058.9200       2.5018270
       7060.3900       2.5494170
       7061.8600       2.5340690
       7063.3300       2.4989560
       7064.8000       2.3985620
       7066.2700       2.3367770
       7067.7400       2.4444650
       7069.2100       2.4705340
       7070.6800       2.5011120
       7072.1500       2.4618290
       7073.6200       2.4311290
       7075.0900       2.4785530
       7076.5600       2.5175090
       7078.0300       2.4577420
       7079.5000       2.5348570
       7080.9700       2.5635870
       7082.4400       2.4662450
       7083.9100       2.5240330
       7085.3800       2.5025200
       7086.8500       2.5043870
       7088.3200       2.5138170
       7089.7900       2.4818200
       7091.2600       2.5158630
       7092.7300       2.4846190
       7094.2000       2.4433350
       7095.6700       2.5076870
       7097.1400       2.5303620
       7098.6100       2.5405110
       7100.0800       2.5476250
       7101.5500       2.5131480
       7103.0200       2.5206330
       7104.4900       2.5283980
       7105.9600       2.4633040
       7107.4300       2.4010460
       7108.9000       2.4756540
       7110.3700       2.4491600
       7111.8400       2.4901190
       7113.3100       2.8133730
       7114.7800       3.3679630
       7116.2500       2.7522800
       7117.7200       2.4064490
       7119.1900       2.5543740
       7120.6600       2.5433620
       7122.1300       2.5489790
       7123.6000       2.5062760
       7125.0700       2.5079590
       7126.5400       2.4953240
       7128.0100       2.4479840
       7129.4800       2.4627430
       7130.9500       2.4815260
       7132.4200       2.4779120
       7133.8900       2.4757350
       7135.3600       2.4624260
       7136.8300       2.4055130
       7138.3000       2.4218730
       7139.7700       2.3492930
       7141.2400       2.3344770
       7142.7100       2.4510990
       7144.1800       2.4267190
       7145.6500       2.3996080
       7147.1200       2.4490530
       7148.5900       2.3912460
       7150.0600       2.3474080
       7151.5300       2.4361030
       7153.0000       2.4777960
       7154.4700       2.4121950
       7155.9400       2.4079740
       7157.4100       2.4572990
       7158.8800       2.4671080
       7160.3500       2.4317380
       7161.8200       2.3683560
       7163.2900       2.3167580
       7164.7600       2.3448460
       7166.2300       2.3329630
       7167.7000       2.3689520
       7169.1700       2.4009430
       7170.6400       2.3866940
       7172.1100       2.4814670
       7173.5800       2.4899290
       7175.0500       2.3870770
       7176.5200       2.4379160
       7177.9900       2.4726410
       7179.4600       2.4065140
       7180.9300       2.4805920
       7182.4000       2.5034930
       7183.8700       2.4953770
       7185.3400       2.4679900
       7186.8100       2.4088480
       7188.2800       2.4478730
       7189.7500       2.3918330
       7191.2200       2.4083030
       7192.6900       2.4483420
       7194.1600       2.4686030
       7195.6300       2.5674910
       7197.1000       2.5579060
       7198.5700       2.4704620
       7200.0400       2.3670420
       7201.5100       2.3793910
       7202.9800       2.3990680
       7204.4500       2.4110330
       7205.9200       2.5399220
       7207.3900       2.6656860
       7208.8600       2.5893360
       7210.3300       2.5116770
       7211.8000       2.6134980
       7213.2700       2.6059910
       7214.7400       2.6530450
       7216.2100       2.7040770
       7217.6800       2.6609930
       7219.1500       2.5778850
       7220.6200       2.5654420
       7222.0900       2.5636030
       7223.5600       2.5391540
       7225.0300       2.5777950
       7226.5000       2.6559430
       7227.9700       2.6817260
       7229.4401       2.6895590
       7230.9100       2.7495520
       7232.3800       2.7127870
       7233.8500       2.6508410
       7235.3200       2.5816320
       7236.7900       2.5629820
       7238.2600       2.6550090
       7239.7300       2.6385690
       7241.2000       2.5274360
       7242.6700       2.5752280
       7244.1400       2.5241730
       7245.6100       2.5792830
       7247.0800       2.6788050
       7248.5500       2.7239290
       7250.0200       2.6473420
       7251.4900       2.6403130
       7252.9600       2.6887240
       7254.4300       2.6697830
       7255.9000       2.6859500
       7257.3700       2.6071640
       7258.8400       2.6069130
       7260.3100       2.6445800
       7261.7800       2.6503060
       7263.2500       2.5742030
       7264.7200       2.5771470
       7266.1900       2.6260040
       7267.6600       2.6206210
       7269.1300       2.6396640
       7270.6000       2.6071760
       7272.0700       2.6204250
       7273.5400       2.6136860
       7275.0100       2.6040740
       7276.4800       2.6000440
       7277.9500       2.6400470
       7279.4200       2.6191460
       7280.8900       2.4946880
       7282.3600       2.5567140
       7283.8300       2.6786990
       7285.3000       2.6478400
       7286.7700       2.5604350
       7288.2400       2.6133120
       7289.7100       2.5727890
       7291.1800       2.5731690
       7292.6500       2.5241290
       7294.1200       2.5616640
       7295.5900       2.6779320
       7297.0600       2.6517030
       7298.5300       2.5263330
       7300.0000       2.4671000
       7301.4700       2.4985650
       7302.9400       2.5466860
       7304.4100       2.5169510
       7305.8800       2.4357130
       7307.3500       2.4920950
       7308.8200       2.5599100
       7310.2900       2.7037060
       7311.7600       2.6479570
       7313.2300       2.5015240
       7314.7000       2.5749230
       7316.1700       2.5898380
       7317.6400       2.5306080
       7319.1100       2.4849260
       7320.5800       2.4534640
       7322.0500       2.4444840
       7323.5200       2.4803640
       7324.9900       2.4799930
       7326.4600       2.5656090
       7327.9300       2.5715850
       7329.4000       2.5902500
       7330.8700       2.5133360
       7332.3400       2.5866640
       7333.8100       2.6771540
       7335.2800       2.5652660
       7336.7500       2.4938540
       7338.2200       2.5353580
       7339.6900       2.5976860
       7341.1600       2.6456230
       7342.6300       2.6237880
       7344.1000       2.4963440
       7345.5700       2.4781750
       7347.0400       2.5933410
       7348.5100       2.5466580
       7349.9800       2.5377780
       7351.4500       2.5582700
       7352.9200       2.5420220
       7354.3900       2.5495180
       7355.8600       2.5648780
       7357.3300       2.5894450
       7358.8000       2.5790020
       7360.2700       2.6400550
       7361.7400       2.5669910
       7363.2100       2.5042310
       7364.6800       2.5581740
       7366.1500       2.5735780
       7367.6200       2.5722840
       7369.0900       2.6150740
       7370.5600       2.5448560
       7372.0300       2.4738540
       7373.5000       2.4748720
       7374.9700       2.6211430
       7376.4400       2.6604560
       7377.9100       2.6461910
       7379.3800       2.6283910
       7380.8500       2.6065760
       7382.3200       2.6431470
       7383.7900       2.5060700
       7385.2600       2.5268050
       7386.7300       2.5931190
       7388.2000       2.6307310
       7389.6700       2.5791060
       7391.1400       2.5143070
       7392.6100       2.4946350
       7394.0800       2.6529890
       7395.5500       2.6958680
       7397.0200       2.6356950
       7398.4900       2.5929630
       7399.9600       2.6858010
       7401.4300       2.7560320
       7402.9000       2.6501650
       7404.3700       2.7090210
       7405.8400       2.7476540
       7407.3100       2.6246450
       7408.7800       2.6809590
       7410.2500       2.6869730
       7411.7200       2.7178490
       7413.1900       2.7752710
       7414.6600       2.6587360
       7416.1300       2.6748330
       7417.6000       2.7109610
       7419.0700       2.6884420
