Units are: observed wavelength (Ang), observed flux (10^-15 erg/s/cm^2/Ang)
       3473.0000      0.25813340
       3474.4700      0.21607820
       3475.9400      0.14902700
       3477.4100      0.20687590
       3478.8800      0.35349460
       3480.3500      0.60910650
       3481.8200      0.21863620
       3483.2900     -0.33087650
       3484.7600      0.25718920
       3486.2300      0.20783010
       3487.7000      0.11060400
       3489.1700      0.39712500
       3490.6400      0.40409390
       3492.1100      0.20947890
       3493.5800     0.090300600
       3495.0500      0.13759490
       3496.5200      0.28820330
       3497.9900      0.52705380
       3499.4600      0.38313290
       3500.9300     0.028151990
       3502.4000     -0.19649100
       3503.8700      0.22457710
       3505.3400      0.61990920
       3506.8100      0.32805220
       3508.2800      0.46702640
       3509.7500      0.54013190
       3511.2200      0.12689960
       3512.6900     0.097033390
       3514.1600      0.25483330
       3515.6300      0.24480810
       3517.1000      0.20139120
       3518.5700      0.11950890
       3520.0400      0.17297070
       3521.5100      0.13515510
       3522.9800      0.21776420
       3524.4500      0.39507470
       3525.9200      0.34044820
       3527.3900      0.29872770
       3528.8600      0.24179690
       3530.3300     0.050961060
       3531.8000      0.20200840
       3533.2700      0.49907810
       3534.7400      0.34435060
       3536.2100      0.14087580
       3537.6800      0.27139250
       3539.1500      0.71939660
       3540.6200      0.37866700
       3542.0900     0.084279860
       3543.5600      0.22921920
       3545.0300    -0.012493990
       3546.5000      0.13072540
       3547.9700      0.38892910
       3549.4400     0.077637470
       3550.9100      0.17069740
       3552.3800      0.25356860
       3553.8500      0.16207890
       3555.3200      0.39074980
       3556.7900      0.51974540
       3558.2600      0.55254050
       3559.7300      0.36761610
       3561.2000      0.29385470
       3562.6700    -0.036505370
       3564.1400      0.16671560
       3565.6100      0.31312940
       3567.0800      0.20274430
       3568.5500      0.20721960
       3570.0200      0.22177350
       3571.4900      0.44638760
       3572.9600      0.39801570
       3574.4300      0.18669990
       3575.9000     0.080995250
       3577.3700      0.15253300
       3578.8400      0.10580670
       3580.3100      0.16907320
       3581.7800      0.37431780
       3583.2500      0.28885680
       3584.7200      0.15214850
       3586.1900      0.14146100
       3587.6600      0.24163160
       3589.1300      0.25522210
       3590.6000      0.30588870
       3592.0700      0.44782890
       3593.5400      0.59667060
       3595.0100      0.43541370
       3596.4800      0.41428890
       3597.9500      0.39902920
       3599.4200      0.23347130
       3600.8900      0.25546580
       3602.3600      0.37180100
       3603.8300      0.49042250
       3605.3000      0.27341880
       3606.7700      0.29976560
       3608.2400      0.32959990
       3609.7100      0.18796790
       3611.1800      0.27286020
       3612.6500      0.23256580
       3614.1200      0.39142440
       3615.5900      0.40995890
       3617.0600      0.30429950
       3618.5300      0.30530800
       3620.0000      0.50346260
       3621.4700      0.28046730
       3622.9400      0.33250310
       3624.4100      0.35022340
       3625.8800      0.22144070
       3627.3500      0.31558180
       3628.8200      0.11142830
       3630.2900      0.11130920
       3631.7600      0.32803220
       3633.2300      0.37184880
       3634.7000      0.39954390
       3636.1700      0.27972850
       3637.6400     0.083367340
       3639.1100      0.34978470
       3640.5800      0.48078970
       3642.0500      0.15555090
       3643.5200     0.059994660
       3644.9900      0.31745620
       3646.4600      0.56989130
       3647.9300      0.58674320
       3649.4000      0.45719860
       3650.8700      0.43753130
       3652.3400      0.43548640
       3653.8100      0.31215690
       3655.2800      0.37717440
       3656.7500      0.31071550
       3658.2200      0.28870110
       3659.6900      0.34732070
       3661.1600      0.33790230
       3662.6300      0.39830640
       3664.1000      0.34859590
       3665.5700      0.37129620
       3667.0400      0.37142150
       3668.5100      0.34254130
       3669.9800      0.44914030
       3671.4500      0.41543070
       3672.9200      0.43855150
       3674.3900      0.45537020
       3675.8600      0.31307800
       3677.3300      0.37001120
       3678.8000      0.69456300
       3680.2700      0.58337850
       3681.7400      0.38560600
       3683.2100      0.43566240
       3684.6800      0.44239850
       3686.1500      0.48842440
       3687.6200      0.49418680
       3689.0900      0.42390440
       3690.5600      0.44700840
       3692.0300      0.37238060
       3693.5000      0.35625010
       3694.9700      0.47783590
       3696.4400      0.42308470
       3697.9100      0.39210430
       3699.3800      0.54314590
       3700.8500      0.48602500
       3702.3200      0.49487690
       3703.7900      0.56852490
       3705.2600      0.42413860
       3706.7300      0.50517350
       3708.2000      0.38693650
       3709.6700      0.31082120
       3711.1400      0.36489080
       3712.6100      0.36389490
       3714.0800      0.36934020
       3715.5500      0.38283940
       3717.0200      0.28399830
       3718.4900      0.52010700
       3719.9600      0.53017630
       3721.4300      0.55633860
       3722.9000      0.47209830
       3724.3700      0.28889360
       3725.8400      0.31729730
       3727.3100      0.41193690
       3728.7800      0.50192300
       3730.2500      0.45941720
       3731.7200      0.54245570
       3733.1900      0.56413190
       3734.6600      0.48560630
       3736.1300      0.46925350
       3737.6000      0.67340140
       3739.0700      0.68805500
       3740.5400      0.62718760
       3742.0100      0.67706790
       3743.4800      0.64883640
       3744.9501      0.54619040
       3746.4200      0.72248090
       3747.8900      0.72927800
       3749.3600      0.54744220
       3750.8300      0.49179060
       3752.3000      0.56539040
       3753.7700      0.62420640
       3755.2400      0.50186940
       3756.7100      0.44249000
       3758.1800      0.58052920
       3759.6500      0.57120450
       3761.1200      0.48205980
       3762.5900      0.43348710
       3764.0600      0.36880110
       3765.5300      0.43854190
       3767.0000      0.49857230
       3768.4700      0.41536580
       3769.9400      0.39891110
       3771.4100      0.52584860
       3772.8800      0.55000880
       3774.3500      0.34830700
       3775.8200      0.27780070
       3777.2900      0.44541780
       3778.7600      0.37047050
       3780.2300      0.28433690
       3781.7000      0.23653750
       3783.1700      0.31776950
       3784.6400      0.31562700
       3786.1100      0.30921870
       3787.5800      0.25316320
       3789.0500      0.32970420
       3790.5200      0.26363220
       3791.9900      0.23791130
       3793.4600      0.30421920
       3794.9300      0.31212990
       3796.4000      0.28859650
       3797.8700      0.30472310
       3799.3400      0.30344020
       3800.8100      0.28495420
       3802.2800      0.27305450
       3803.7500      0.34927830
       3805.2200      0.31999420
       3806.6900      0.28592130
       3808.1600      0.25996690
       3809.6300      0.22335860
       3811.1000      0.17081890
       3812.5700      0.13765640
       3814.0400      0.26618510
       3815.5100      0.31373310
       3816.9800      0.23171060
       3818.4500      0.32589160
       3819.9200      0.31949430
       3821.3900      0.27741050
       3822.8600      0.29491250
       3824.3300      0.29416380
       3825.8000      0.28381500
       3827.2700      0.32226460
       3828.7400      0.31743110
       3830.2100      0.29862000
       3831.6800      0.27991180
       3833.1500      0.32600120
       3834.6200      0.29127690
       3836.0900      0.33146240
       3837.5600      0.30227280
       3839.0300      0.31533920
       3840.5000      0.42083530
       3841.9700      0.40087890
       3843.4400      0.30220770
       3844.9100      0.28422730
       3846.3800      0.35259040
       3847.8500      0.43808610
       3849.3200      0.45458190
       3850.7900      0.50387450
       3852.2600      0.53294620
       3853.7300      0.45593010
       3855.2000      0.36628140
       3856.6700      0.44654990
       3858.1400      0.44284840
       3859.6100      0.38237470
       3861.0800      0.42518890
       3862.5500      0.47555960
       3864.0200      0.51437000
       3865.4900      0.58102640
       3866.9600      0.55909990
       3868.4300      0.51561650
       3869.9000      0.46988610
       3871.3700      0.47288880
       3872.8400      0.55536610
       3874.3100      0.64500390
       3875.7800      0.58615460
       3877.2500      0.50417400
       3878.7200      0.54098190
       3880.1900      0.62853630
       3881.6600      0.61588560
       3883.1300      0.60901150
       3884.6000      0.56922670
       3886.0700      0.69093820
       3887.5400      0.70006640
       3889.0100      0.68738600
       3890.4800      0.59331460
       3891.9500      0.55933920
       3893.4200      0.68988540
       3894.8900      0.79427400
       3896.3600      0.68794630
       3897.8300      0.69292180
       3899.3000      0.77671930
       3900.7700      0.82301420
       3902.2400      0.71430950
       3903.7100      0.67026170
       3905.1800      0.69240800
       3906.6500      0.75411670
       3908.1200      0.74434910
       3909.5900      0.90750620
       3911.0600      0.86762780
       3912.5300      0.73945620
       3914.0000      0.77335270
       3915.4700      0.87947990
       3916.9400      0.74671010
       3918.4100      0.76904490
       3919.8800      0.92946490
       3921.3500      0.86010460
       3922.8200      0.91120510
       3924.2900      0.99525580
       3925.7600      0.90876630
       3927.2300      0.85740440
       3928.7000      0.88235400
       3930.1700      0.91004200
       3931.6400      0.97061540
       3933.1100      0.96627480
       3934.5800      0.98552560
       3936.0500       1.0573060
       3937.5200       1.0594400
       3938.9900       1.0874560
       3940.4600      0.99213520
       3941.9300      0.95135190
       3943.4000       1.0183520
       3944.8700      0.97599640
       3946.3400      0.95316450
       3947.8100       1.0138900
       3949.2800      0.99594020
       3950.7500      0.94825520
       3952.2200      0.94679530
       3953.6900       1.0541320
       3955.1600       1.0768960
       3956.6300       1.0711420
       3958.1000       1.0654160
       3959.5700       1.0597500
       3961.0400       1.1060060
       3962.5100       1.1347560
       3963.9800       1.0821360
       3965.4500       1.0178100
       3966.9200       1.0423350
       3968.3900       1.1081760
       3969.8600       1.0783040
       3971.3300       1.0661780
       3972.8000       1.1225060
       3974.2700       1.0814410
       3975.7400       1.1728210
       3977.2100       1.2339510
       3978.6800       1.1791500
       3980.1500       1.1667240
       3981.6200       1.0998320
       3983.0900       1.0872550
       3984.5600       1.2049310
       3986.0300       1.1105410
       3987.5000       1.0621870
       3988.9700       1.1820480
       3990.4400       1.2256200
       3991.9100       1.2154660
       3993.3800       1.1737220
       3994.8500       1.1227980
       3996.3200       1.0891520
       3997.7900       1.1281580
       3999.2600       1.1685790
       4000.7300       1.2411440
       4002.2000       1.2061180
       4003.6700       1.0772120
       4005.1400       1.0713570
       4006.6100       1.0926700
       4008.0800       1.1620890
       4009.5500       1.1873450
       4011.0200       1.2107100
       4012.4900       1.1504960
       4013.9600       1.1575630
       4015.4300       1.1142210
       4016.9000       1.0947480
       4018.3700       1.1015370
       4019.8400       1.0932130
       4021.3100       1.1405580
       4022.7800       1.1971650
       4024.2500       1.1414530
       4025.7200       1.1732770
       4027.1900       1.0730480
       4028.6600       1.0827760
       4030.1300       1.1420260
       4031.6000       1.0967740
       4033.0700       1.1325380
       4034.5400       1.1092500
       4036.0100       1.1129790
       4037.4800       1.0547640
       4038.9500       1.0705640
       4040.4200       1.1149420
       4041.8900       1.0842370
       4043.3600       1.1793280
       4044.8300       1.1072690
       4046.3000       1.0454430
       4047.7700       1.1205110
       4049.2400       1.1135360
       4050.7100       1.0232520
       4052.1800       1.1052520
       4053.6500       1.0748310
       4055.1200       1.0505370
       4056.5900       1.0618790
       4058.0601       1.1491240
       4059.5300       1.0693510
       4061.0000      0.96214070
       4062.4700       1.0241580
       4063.9400       1.0583150
       4065.4100       1.0563430
       4066.8800       1.0654410
       4068.3500       1.0456270
       4069.8200       1.0482360
       4071.2900       1.0439230
       4072.7600       1.0483340
       4074.2300       1.0526630
       4075.7000       1.0168780
       4077.1700       1.0537410
       4078.6400       1.0814030
       4080.1100       1.0177470
       4081.5800       1.0190890
       4083.0500      0.93769430
       4084.5200      0.98814200
       4085.9900       1.0058870
       4087.4600      0.97829850
       4088.9300      0.92912830
       4090.4000      0.92998240
       4091.8700      0.91753490
       4093.3400      0.93205580
       4094.8100      0.91677910
       4096.2800      0.90152580
       4097.7500      0.87419220
       4099.2200      0.83901670
       4100.6900      0.91372170
       4102.1600      0.88823620
       4103.6300      0.85931630
       4105.1000      0.86264770
       4106.5700      0.83581540
       4108.0400      0.82731060
       4109.5100      0.84128910
       4110.9800      0.80842370
       4112.4500      0.75356510
       4113.9200      0.75154310
       4115.3900      0.76681460
       4116.8600      0.73680900
       4118.3300      0.73781880
       4119.8000      0.79614350
       4121.2700      0.82507510
       4122.7400      0.80033000
       4124.2100      0.71502950
       4125.6800      0.70060260
       4127.1500      0.71835770
       4128.6200      0.67828110
       4130.0900      0.67142330
       4131.5600      0.62692280
       4133.0300      0.67324750
       4134.5000      0.69382320
       4135.9700      0.69505990
       4137.4400      0.70728750
       4138.9100      0.71688390
       4140.3800      0.67292080
       4141.8500      0.63289540
       4143.3200      0.61679300
       4144.7900      0.58005680
       4146.2600      0.68062090
       4147.7300      0.68149690
       4149.2000      0.63380290
       4150.6700      0.62713180
       4152.1400      0.60281930
       4153.6100      0.59088440
       4155.0800      0.53599380
       4156.5500      0.56643930
       4158.0200      0.52890880
       4159.4900      0.57006310
       4160.9600      0.62283060
       4162.4300      0.69265260
       4163.9000      0.63155030
       4165.3700      0.56760750
       4166.8400      0.53866500
       4168.3100      0.61311080
       4169.7800      0.54105930
       4171.2500      0.46798070
       4172.7200      0.52316020
       4174.1900      0.51978520
       4175.6600      0.55883320
       4177.1300      0.63399650
       4178.6000      0.66710700
       4180.0700      0.56606790
       4181.5400      0.54088960
       4183.0100      0.58365310
       4184.4800      0.54103240
       4185.9500      0.55934290
       4187.4200      0.52670560
       4188.8900      0.59175360
       4190.3600      0.56615930
       4191.8300      0.45402220
       4193.3000      0.49819560
       4194.7700      0.59550030
       4196.2400      0.51356120
       4197.7100      0.49947010
       4199.1800      0.55252190
       4200.6500      0.52906410
       4202.1200      0.54361680
       4203.5900      0.61820580
       4205.0600      0.59081520
       4206.5300      0.60613560
       4208.0000      0.57035610
       4209.4700      0.57390140
       4210.9400      0.60263240
       4212.4100      0.63562750
       4213.8800      0.69074020
       4215.3500      0.64076590
       4216.8200      0.63618480
       4218.2900      0.62617000
       4219.7600      0.56687120
       4221.2300      0.60026830
       4222.7000      0.64924480
       4224.1700      0.63624600
       4225.6400      0.63450890
       4227.1100      0.63890030
       4228.5800      0.70183960
       4230.0500      0.68542610
       4231.5200      0.66617870
       4232.9900      0.68607120
       4234.4600      0.72616770
       4235.9300      0.73282400
       4237.4000      0.68339300
       4238.8700      0.66054350
       4240.3400      0.64530780
       4241.8100      0.57751040
       4243.2800      0.65950760
       4244.7500      0.74563850
       4246.2200      0.70576320
       4247.6900      0.65991190
       4249.1600      0.65170290
       4250.6300      0.67171000
       4252.1000      0.63777320
       4253.5700      0.62748930
       4255.0400      0.65596860
       4256.5100      0.65672330
       4257.9800      0.60694180
       4259.4500      0.70772760
       4260.9200      0.80032050
       4262.3900      0.70313980
       4263.8600      0.64370360
       4265.3300      0.69224220
       4266.8000      0.71241990
       4268.2700      0.70499400
       4269.7400      0.67996740
       4271.2100      0.64094810
       4272.6800      0.63769880
       4274.1500      0.64735210
       4275.6200      0.63205810
       4277.0900      0.63967480
       4278.5600      0.67503600
       4280.0300      0.67823580
       4281.5000      0.67801930
       4282.9700      0.63160160
       4284.4400      0.69961110
       4285.9100      0.70720940
       4287.3800      0.67328880
       4288.8500      0.68946120
       4290.3200      0.66351100
       4291.7900      0.68115570
       4293.2600      0.71927840
       4294.7300      0.66426200
       4296.2000      0.67331300
       4297.6700      0.65189790
       4299.1400      0.63150040
       4300.6100      0.70326660
       4302.0800      0.70773600
       4303.5500      0.73696570
       4305.0200      0.67963240
       4306.4900      0.62889290
       4307.9600      0.65804130
       4309.4300      0.68833940
       4310.9000      0.70447500
       4312.3700      0.78995950
       4313.8400      0.80049100
       4315.3100      0.71832870
       4316.7800      0.68393620
       4318.2500      0.64019210
       4319.7200      0.66031550
       4321.1900      0.69761860
       4322.6600      0.72467820
       4324.1300      0.69082720
       4325.6000      0.71120080
       4327.0700      0.72127300
       4328.5400      0.71001540
       4330.0100      0.75613030
       4331.4800      0.73703990
       4332.9500      0.67237120
       4334.4200      0.72938750
       4335.8900      0.75929110
       4337.3600      0.74387290
       4338.8300      0.74112670
       4340.3000      0.71841090
       4341.7700      0.73760860
       4343.2400      0.72953860
       4344.7100      0.71763470
       4346.1800      0.70787870
       4347.6500      0.76744930
       4349.1200      0.79890980
       4350.5900      0.70867290
       4352.0600      0.71400170
       4353.5300      0.66150230
       4355.0000      0.75034370
       4356.4700      0.82366780
       4357.9400      0.75815240
       4359.4100      0.72813020
       4360.8800      0.74933160
       4362.3500      0.79631260
       4363.8200      0.80448210
       4365.2900      0.78837690
       4366.7600      0.70911430
       4368.2300      0.69322650
       4369.7000      0.72772140
       4371.1701      0.75362980
       4372.6400      0.73852560
       4374.1100      0.74396720
       4375.5800      0.71103850
       4377.0500      0.70704530
       4378.5200      0.76518950
       4379.9900      0.75945480
       4381.4600      0.74169220
       4382.9300      0.75699660
       4384.4000      0.77597170
       4385.8700      0.69430010
       4387.3400      0.69194460
       4388.8100      0.78305950
       4390.2800      0.70211680
       4391.7500      0.68977450
       4393.2200      0.72674520
       4394.6900      0.74247590
       4396.1600      0.73460730
       4397.6300      0.77031510
       4399.1000      0.69578400
       4400.5700      0.69001500
       4402.0400      0.63825880
       4403.5100      0.68096910
       4404.9800      0.67843470
       4406.4500      0.70292050
       4407.9200      0.65779840
       4409.3900      0.64357190
       4410.8600      0.67868960
       4412.3300      0.68897350
       4413.8000      0.69139330
       4415.2700      0.72626920
       4416.7400      0.65706320
       4418.2100      0.65696270
       4419.6800      0.66506220
       4421.1500      0.68630900
       4422.6200      0.68363360
       4424.0900      0.57102530
       4425.5600      0.64068040
       4427.0300      0.74423270
       4428.5000      0.72130780
       4429.9700      0.72312210
       4431.4400      0.74139020
       4432.9100      0.73608400
       4434.3800      0.71598620
       4435.8500      0.75467030
       4437.3200      0.71390510
       4438.7900      0.71805750
       4440.2600      0.69230320
       4441.7300      0.72455850
       4443.2000      0.65530950
       4444.6700      0.66523210
       4446.1400      0.70869610
       4447.6100      0.74640600
       4449.0800      0.82424040
       4450.5500      0.79580580
       4452.0200      0.74278580
       4453.4900      0.77456270
       4454.9600      0.78502320
       4456.4300      0.79455690
       4457.9000      0.81417440
       4459.3700      0.83813990
       4460.8400      0.81927320
       4462.3100      0.83106270
       4463.7800      0.80797740
       4465.2500      0.83624260
       4466.7200      0.87662400
       4468.1900      0.89981690
       4469.6600      0.90317200
       4471.1300      0.88320410
       4472.6000      0.89936660
       4474.0700      0.93372150
       4475.5400       1.0000440
       4477.0100      0.99660630
       4478.4800       1.0078930
       4479.9500      0.99267260
       4481.4200      0.95585280
       4482.8900       1.0058200
       4484.3600       1.0277280
       4485.8300       1.0085000
       4487.3000       1.0350050
       4488.7700       1.0898000
       4490.2400       1.0747730
       4491.7100       1.0164090
       4493.1800       1.0248040
       4494.6500       1.1106540
       4496.1200       1.1507810
       4497.5900       1.0684930
       4499.0600       1.0709010
       4500.5300       1.1703400
       4502.0000       1.2155320
       4503.4700       1.1320740
       4504.9400       1.1552660
       4506.4100       1.1531950
       4507.8800       1.1250890
       4509.3500       1.1585790
       4510.8200       1.1481910
       4512.2900       1.1761060
       4513.7600       1.1664390
       4515.2300       1.1847970
       4516.7000       1.2736350
       4518.1700       1.2207820
       4519.6400       1.2364290
       4521.1100       1.2793480
       4522.5800       1.2673940
       4524.0500       1.3071660
       4525.5200       1.3043840
       4526.9900       1.3087880
       4528.4600       1.3423190
       4529.9300       1.3613350
       4531.4000       1.2868580
       4532.8700       1.3026060
       4534.3400       1.3683000
       4535.8100       1.4014270
       4537.2800       1.4817190
       4538.7500       1.4559770
       4540.2200       1.4741330
       4541.6900       1.4579850
       4543.1600       1.4811730
       4544.6300       1.5022040
       4546.1000       1.5493040
       4547.5700       1.5686020
       4549.0400       1.5526850
       4550.5100       1.6114320
       4551.9800       1.6567040
       4553.4500       1.6398680
       4554.9200       1.6793390
       4556.3900       1.6953090
       4557.8600       1.6305430
       4559.3300       1.6415620
       4560.8000       1.6865680
       4562.2700       1.6872480
       4563.7400       1.7551340
       4565.2100       1.7260130
       4566.6800       1.7206480
       4568.1500       1.7766600
       4569.6200       1.8082600
       4571.0900       1.8585750
       4572.5600       1.7726080
       4574.0300       1.7860230
       4575.5000       1.8649950
       4576.9700       1.9331730
       4578.4400       1.9634840
       4579.9100       1.9163270
       4581.3800       1.9435740
       4582.8500       1.9965200
       4584.3200       1.9910370
       4585.7900       1.9964930
       4587.2600       2.0580620
       4588.7300       2.0776490
       4590.2000       2.1211960
       4591.6700       2.1476080
       4593.1400       2.1112380
       4594.6100       2.1070680
       4596.0800       2.1382040
       4597.5500       2.1005540
       4599.0200       2.0397780
       4600.4900       2.1045590
       4601.9600       2.1089360
       4603.4300       2.0726770
       4604.9000       2.0806280
       4606.3700       2.0822470
       4607.8400       2.0305760
       4609.3100       2.0611700
       4610.7800       2.0921700
       4612.2500       1.9939840
       4613.7200       1.9799280
       4615.1900       2.0644800
       4616.6600       2.0371030
       4618.1300       2.0823440
       4619.6000       2.1017920
       4621.0700       2.1098770
       4622.5400       2.1399120
       4624.0100       2.1913410
       4625.4800       2.1065380
       4626.9500       2.1323980
       4628.4200       2.1433810
       4629.8900       2.0950460
       4631.3600       1.9976680
       4632.8300       1.9945590
       4634.3000       2.0200960
       4635.7700       2.0400870
       4637.2400       2.0482930
       4638.7100       2.0621920
       4640.1800       2.0951250
       4641.6500       2.1279760
       4643.1200       2.1190550
       4644.5900       2.0521910
       4646.0600       1.9782410
       4647.5300       1.9580040
       4649.0000       1.9523660
       4650.4700       1.9095510
       4651.9400       1.8381850
       4653.4100       1.8819700
       4654.8800       1.8835670
       4656.3500       1.8969520
       4657.8200       1.9340850
       4659.2900       1.8754950
       4660.7600       1.8334880
       4662.2300       1.8649270
       4663.7000       1.8639540
       4665.1700       1.8314930
       4666.6400       1.7511310
       4668.1100       1.7210380
       4669.5800       1.7496640
       4671.0500       1.7907470
       4672.5200       1.7714830
       4673.9900       1.6745610
       4675.4600       1.6790660
       4676.9300       1.6183020
       4678.4000       1.6348010
       4679.8700       1.6132820
       4681.3400       1.4952210
       4682.8100       1.6184830
       4684.2801       1.5908200
       4685.7500       1.5154000
       4687.2200       1.5283730
       4688.6900       1.4900900
       4690.1600       1.5169340
       4691.6300       1.5575390
       4693.1000       1.4821180
       4694.5700       1.4900150
       4696.0400       1.4501330
       4697.5100       1.4679420
       4698.9800       1.4138260
       4700.4500       1.4338480
       4701.9200       1.4833610
       4703.3900       1.4673570
       4704.8600       1.4366630
       4706.3300       1.4317780
       4707.8000       1.3686400
       4709.2700       1.3397150
       4710.7400       1.3875660
       4712.2100       1.3723760
       4713.6800       1.4203510
       4715.1500       1.4486400
       4716.6200       1.3977070
       4718.0900       1.3857150
       4719.5600       1.3907400
       4721.0300       1.4073220
       4722.5000       1.3412440
       4723.9700       1.3533560
       4725.4400       1.3606620
       4726.9100       1.4363790
       4728.3800       1.4662860
       4729.8500       1.3899010
       4731.3200       1.3760840
       4732.7900       1.3625580
       4734.2600       1.4996360
       4735.7300       1.4878600
       4737.2000       1.4542320
       4738.6700       1.4301260
       4740.1400       1.4099710
       4741.6100       1.3916850
       4743.0800       1.3486670
       4744.5500       1.3434730
       4746.0200       1.3852220
       4747.4900       1.3831520
       4748.9600       1.3584980
       4750.4300       1.4060050
       4751.9000       1.3576950
       4753.3700       1.2742080
       4754.8400       1.2956080
       4756.3100       1.3301990
       4757.7800       1.2988670
       4759.2500       1.3306990
       4760.7200       1.3206940
       4762.1900       1.3026220
       4763.6600       1.3262240
       4765.1300       1.2766220
       4766.6000       1.2517720
       4768.0700       1.2463560
       4769.5400       1.2478700
       4771.0100       1.2652190
       4772.4800       1.2496650
       4773.9500       1.2407160
       4775.4200       1.2241910
       4776.8900       1.1845980
       4778.3600       1.1953780
       4779.8300       1.1775230
       4781.3000       1.1748300
       4782.7700       1.1831680
       4784.2400       1.1440010
       4785.7100       1.1965740
       4787.1800       1.2171220
       4788.6500       1.2138660
       4790.1200       1.1828180
       4791.5900       1.2352580
       4793.0600       1.2441320
       4794.5300       1.2358960
       4796.0000       1.2022320
       4797.4700       1.1825280
       4798.9400       1.2362990
       4800.4100       1.2218020
       4801.8800       1.2394650
       4803.3500       1.1841430
       4804.8200       1.1371060
       4806.2900       1.2236370
       4807.7600       1.2497330
       4809.2300       1.1971680
       4810.7000       1.2499810
       4812.1700       1.1892920
       4813.6400       1.3024690
       4815.1100       1.3208240
       4816.5800       1.2450500
       4818.0500       1.2843020
       4819.5200       1.3120210
       4820.9900       1.2909560
       4822.4600       1.3547920
       4823.9300       1.3746630
       4825.4000       1.4131160
       4826.8700       1.4328250
       4828.3400       1.3839290
       4829.8100       1.4214970
       4831.2800       1.3390960
       4832.7500       1.3656860
       4834.2200       1.4356940
       4835.6900       1.3986040
       4837.1600       1.3930100
       4838.6300       1.4542600
       4840.1000       1.3351800
       4841.5700       1.4011190
       4843.0400       1.3814700
       4844.5100       1.3136730
       4845.9800       1.2958240
       4847.4500       1.3750610
       4848.9200       1.3769000
       4850.3900       1.3004230
       4851.8600       1.3380490
       4853.3300       1.3689090
       4854.8000       1.3220620
       4856.2700       1.3152680
       4857.7400       1.3452090
       4859.2100       1.2954240
       4860.6800       1.3017980
       4862.1500       1.2904780
       4863.6200       1.2483800
       4865.0900       1.2815970
       4866.5600       1.3281130
       4868.0300       1.2382210
       4869.5000       1.2660640
       4870.9700       1.2643870
       4872.4400       1.2372650
       4873.9100       1.3518730
       4875.3800       1.2778780
       4876.8500       1.2775270
       4878.3200       1.2623890
       4879.7900       1.2683500
       4881.2600       1.3276790
       4882.7300       1.3279300
       4884.2000       1.4081890
       4885.6700       1.4248090
       4887.1400       1.3723820
       4888.6100       1.2824460
       4890.0800       1.3085980
       4891.5500       1.3102660
       4893.0200       1.3711110
       4894.4900       1.3814920
       4895.9600       1.2992040
       4897.4300       1.3511180
       4898.9000       1.4278780
       4900.3700       1.4325870
       4901.8400       1.4081820
       4903.3100       1.4063670
       4904.7800       1.4390250
       4906.2500       1.4133700
       4907.7200       1.4681030
       4909.1900       1.4354790
       4910.6600       1.4609540
       4912.1300       1.4889790
       4913.6000       1.5312530
       4915.0700       1.4926670
       4916.5400       1.4935220
       4918.0100       1.5697360
       4919.4800       1.5843820
       4920.9500       1.6486890
       4922.4200       1.6826800
       4923.8900       1.6488930
       4925.3600       1.6766200
       4926.8300       1.6210490
       4928.3000       1.7532350
       4929.7700       1.6982200
       4931.2400       1.7564110
       4932.7100       1.8582810
       4934.1800       1.8200320
       4935.6500       1.8741550
       4937.1200       1.8655630
       4938.5900       1.8415070
       4940.0600       1.8447170
       4941.5300       1.7713200
       4943.0000       1.7708720
       4944.4700       1.8235030
       4945.9400       1.9067270
       4947.4100       1.8635140
       4948.8800       1.9334220
       4950.3500       1.9434390
       4951.8200       1.9649610
       4953.2900       1.9508360
       4954.7600       2.0068640
       4956.2300       2.0119030
       4957.7000       1.9760110
       4959.1700       2.0309660
       4960.6400       1.9245620
       4962.1100       1.9723450
       4963.5800       2.0223880
       4965.0500       1.9575650
       4966.5200       2.0100320
       4967.9900       1.9573230
       4969.4600       1.9041070
       4970.9300       1.8607820
       4972.4000       1.9160190
       4973.8700       1.9277660
       4975.3400       1.8496470
       4976.8100       1.8115690
       4978.2800       1.8649780
       4979.7500       1.8385030
       4981.2200       1.7391180
       4982.6900       1.7990070
       4984.1600       1.7379100
       4985.6300       1.6771430
       4987.1000       1.6400870
       4988.5700       1.6779790
       4990.0400       1.6279290
       4991.5100       1.5901660
       4992.9800       1.5902620
       4994.4500       1.5516750
       4995.9200       1.5686630
       4997.3901       1.4919490
       4998.8600       1.4326230
       5000.3300       1.5271340
       5001.8000       1.5255040
       5003.2700       1.4909550
       5004.7400       1.4530140
       5006.2100       1.4444960
       5007.6800       1.4047770
       5009.1500       1.3294800
       5010.6200       1.3874960
       5012.0900       1.3693990
       5013.5600       1.3741180
       5015.0300       1.3204590
       5016.5000       1.3514420
       5017.9700       1.2912070
       5019.4400       1.2931290
       5020.9100       1.2542580
       5022.3800       1.2457010
       5023.8500       1.2451020
       5025.3200       1.2769890
       5026.7900       1.3057400
       5028.2600       1.3711400
       5029.7300       1.2632980
       5031.2000       1.2607770
       5032.6700       1.2782480
       5034.1400       1.2475780
       5035.6100       1.2004590
       5037.0800       1.1936330
       5038.5500       1.2360070
       5040.0200       1.2078870
       5041.4900       1.2367550
       5042.9600       1.2315180
       5044.4300       1.1863800
       5045.9000       1.1487050
       5047.3700       1.1290900
       5048.8400       1.1941160
       5050.3100       1.1705340
       5051.7800       1.1402880
       5053.2500       1.2010650
       5054.7200       1.1729280
       5056.1900       1.1369350
       5057.6600       1.1142080
       5059.1300       1.1372070
       5060.6000       1.1330880
       5062.0700       1.1367080
       5063.5400       1.1602590
       5065.0100       1.0951090
       5066.4800       1.1081620
       5067.9500       1.1006930
       5069.4200       1.1754300
       5070.8900       1.1445900
       5072.3600       1.1134820
       5073.8300       1.1165140
       5075.3000       1.1489150
       5076.7700       1.1885340
       5078.2400       1.1751150
       5079.7100       1.1995940
       5081.1800       1.2216930
       5082.6500       1.1992730
       5084.1200       1.1595400
       5085.5900       1.1958680
       5087.0600       1.1999060
       5088.5300       1.2235140
       5090.0000       1.2062950
       5091.4700       1.2181430
       5092.9400       1.1847080
       5094.4100       1.2383910
       5095.8800       1.2484040
       5097.3500       1.2750050
       5098.8200       1.2822080
       5100.2900       1.2398480
       5101.7600       1.2376270
       5103.2300       1.2208590
       5104.7000       1.2632730
       5106.1700       1.3569290
       5107.6400       1.3188510
       5109.1100       1.2932660
       5110.5800       1.3751120
       5112.0500       1.3979410
       5113.5200       1.3819610
       5114.9900       1.3902110
       5116.4600       1.3848210
       5117.9300       1.4047680
       5119.4000       1.3800460
       5120.8700       1.3946900
       5122.3400       1.4027940
       5123.8100       1.3898990
       5125.2800       1.4168730
       5126.7500       1.3728000
       5128.2200       1.3972920
       5129.6900       1.3923070
       5131.1600       1.4089050
       5132.6300       1.4209490
       5134.1000       1.4340590
       5135.5700       1.5203410
       5137.0400       1.5056160
       5138.5100       1.4902450
       5139.9800       1.4718150
       5141.4500       1.4774220
       5142.9200       1.4698180
       5144.3900       1.4903380
       5145.8600       1.5407520
       5147.3300       1.4733540
       5148.8000       1.4944020
       5150.2700       1.4997900
       5151.7400       1.4882370
       5153.2100       1.5646560
       5154.6800       1.5417600
       5156.1500       1.5378880
       5157.6200       1.4822350
       5159.0900       1.5083770
       5160.5600       1.5540590
       5162.0300       1.4768580
       5163.5000       1.5022400
       5164.9700       1.5834600
       5166.4400       1.5830520
       5167.9100       1.5535110
       5169.3800       1.5493650
       5170.8500       1.6016810
       5172.3200       1.6242410
       5173.7900       1.5705800
       5175.2600       1.6066310
       5176.7300       1.5832800
       5178.2000       1.5300270
       5179.6700       1.5851110
       5181.1400       1.6025560
       5182.6100       1.6153520
       5184.0800       1.5947680
       5185.5500       1.6077090
       5187.0200       1.6460990
       5188.4900       1.6738780
       5189.9600       1.6420170
       5191.4300       1.6480390
       5192.9000       1.6548070
       5194.3700       1.6264200
       5195.8400       1.6073330
       5197.3100       1.5812130
       5198.7800       1.6290250
       5200.2500       1.6415970
       5201.7200       1.6732660
       5203.1900       1.6799670
       5204.6600       1.6661790
       5206.1300       1.7127830
       5207.6000       1.6933770
       5209.0700       1.6852590
       5210.5400       1.6979230
       5212.0100       1.6826270
       5213.4800       1.6754240
       5214.9500       1.6777190
       5216.4200       1.7243730
       5217.8900       1.7735870
       5219.3600       1.7786780
       5220.8300       1.7748280
       5222.3000       1.8471950
       5223.7700       1.8479320
       5225.2400       1.8278970
       5226.7100       1.8548970
       5228.1800       1.8571450
       5229.6500       1.8528310
       5231.1200       1.8261490
       5232.5900       1.8998610
       5234.0600       1.9684020
       5235.5300       1.9320730
       5237.0000       1.9104920
       5238.4700       1.8983040
       5239.9400       1.8842360
       5241.4100       1.8878340
       5242.8800       1.9139110
       5244.3500       1.9464020
       5245.8200       1.9664320
       5247.2900       1.9511870
       5248.7600       1.9283960
       5250.2300       1.9000720
       5251.7000       1.9848740
       5253.1700       2.0117790
       5254.6400       2.0287180
       5256.1100       2.0165840
       5257.5800       2.0602250
       5259.0500       2.0886030
       5260.5200       2.0726870
       5261.9900       2.0929990
       5263.4600       2.1129100
       5264.9300       2.1288960
       5266.4000       2.0986490
       5267.8700       2.1581570
       5269.3400       2.1949280
       5270.8100       2.1772970
       5272.2800       2.1555580
       5273.7500       2.1411630
       5275.2200       2.1492500
       5276.6900       2.1990560
       5278.1600       2.2115240
       5279.6300       2.2624710
       5281.1000       2.3254050
       5282.5700       2.3564780
       5284.0400       2.3481550
       5285.5100       2.3038280
       5286.9800       2.3017970
       5288.4500       2.3165380
       5289.9200       2.2777810
       5291.3900       2.3386920
       5292.8600       2.3728380
       5294.3300       2.3328010
       5295.8000       2.3007810
       5297.2700       2.2995570
       5298.7400       2.3581560
       5300.2100       2.3809060
       5301.6800       2.4025140
       5303.1500       2.4677200
       5304.6200       2.3890920
       5306.0900       2.3401330
       5307.5600       2.4171590
       5309.0300       2.4655530
       5310.5001       2.5011190
       5311.9700       2.4839170
       5313.4400       2.4757760
       5314.9100       2.4774570
       5316.3800       2.5389390
       5317.8500       2.5428930
       5319.3200       2.6449850
       5320.7900       2.6614690
       5322.2600       2.6315130
       5323.7300       2.6128220
       5325.2000       2.6662680
       5326.6700       2.6351150
       5328.1400       2.7113260
       5329.6100       2.7782730
       5331.0800       2.6752970
       5332.5500       2.7272260
       5334.0200       2.7820710
       5335.4900       2.8142870
       5336.9600       2.6970560
       5338.4300       2.7195210
       5339.9000       2.7543090
       5341.3700       2.7402530
       5342.8400       2.7453380
       5344.3100       2.7053750
       5345.7800       2.7049290
       5347.2500       2.7089050
       5348.7200       2.7249600
       5350.1900       2.7262160
       5351.6600       2.6824850
       5353.1300       2.6636310
       5354.6000       2.6430720
       5356.0700       2.6043950
       5357.5400       2.6253560
       5359.0100       2.6531680
       5360.4800       2.6027570
       5361.9500       2.5271390
       5363.4200       2.6229670
       5364.8900       2.6010430
       5366.3600       2.4941750
       5367.8300       2.5187960
       5369.3000       2.5869460
       5370.7700       2.5551400
       5372.2400       2.5231290
       5373.7100       2.5466950
       5375.1800       2.5766830
       5376.6500       2.5236570
       5378.1200       2.5477740
       5379.5900       2.5515950
       5381.0600       2.4967760
       5382.5300       2.4897820
       5384.0000       2.4368740
       5385.4700       2.4403540
       5386.9400       2.5293990
       5388.4100       2.4922300
       5389.8800       2.4147530
       5391.3500       2.3805370
       5392.8200       2.4327590
       5394.2900       2.4197930
       5395.7600       2.4659440
       5397.2300       2.4161060
       5398.7000       2.4512620
       5400.1700       2.3959140
       5401.6400       2.3852740
       5403.1100       2.4516460
       5404.5800       2.4220430
       5406.0500       2.4423510
       5407.5200       2.3856680
       5408.9900       2.3917590
       5410.4600       2.4073410
       5411.9300       2.4346880
       5413.4000       2.4872550
       5414.8700       2.4382230
       5416.3400       2.4475230
       5417.8100       2.4800980
       5419.2800       2.3910440
       5420.7500       2.4111510
       5422.2200       2.4500940
       5423.6900       2.4652100
       5425.1600       2.5296940
       5426.6300       2.4326050
       5428.1000       2.4296930
       5429.5700       2.5300300
       5431.0400       2.5063000
       5432.5100       2.4973560
       5433.9800       2.4925940
       5435.4500       2.5128160
       5436.9200       2.6131920
       5438.3900       2.5784810
       5439.8600       2.6047650
       5441.3300       2.6517980
       5442.8000       2.6467390
       5444.2700       2.6812580
       5445.7400       2.7703470
       5447.2100       2.7671340
       5448.6800       2.7383980
       5450.1500       2.7322480
       5451.6200       2.8070500
       5453.0900       2.8465130
       5454.5600       2.9564180
       5456.0300       3.0161200
       5457.5000       2.9948430
       5458.9700       3.0118250
       5460.4400       2.9942320
       5461.9100       3.0747760
       5463.3800       3.1199180
       5464.8500       3.1679780
       5466.3200       3.2018870
       5467.7900       3.1919260
       5469.2600       3.1874670
       5470.7300       3.1969370
       5472.2000       3.2011460
       5473.6700       3.2036350
       5475.1400       3.2247720
       5476.6100       3.3242380
       5478.0800       3.4111630
       5479.5500       3.4138910
       5481.0200       3.3721140
       5482.4900       3.4536750
       5483.9600       3.4857680
       5485.4300       3.5180210
       5486.9000       3.5335990
       5488.3700       3.4525100
       5489.8400       3.4666860
       5491.3100       3.4901950
       5492.7800       3.5429290
       5494.2500       3.5865950
       5495.7200       3.5642420
       5497.1900       3.4474300
       5498.6600       3.5175940
       5500.1300       3.6342180
       5501.6000       3.5942130
       5503.0700       3.5493140
       5504.5400       3.5698340
       5506.0100       3.5002950
       5507.4800       3.5028450
       5508.9500       3.5812730
       5510.4200       3.5376730
       5511.8900       3.4334600
       5513.3600       3.4618550
       5514.8300       3.5050920
       5516.3000       3.4437250
       5517.7700       3.3700570
       5519.2400       3.4252690
       5520.7100       3.4093350
       5522.1800       3.3807240
       5523.6500       3.4135410
       5525.1200       3.3466800
       5526.5900       3.2897410
       5528.0600       3.2200020
       5529.5300       3.2557060
       5531.0000       3.2806390
       5532.4700       3.2488470
       5533.9400       3.2489800
       5535.4100       3.2049280
       5536.8800       3.1883620
       5538.3500       3.1758690
       5539.8200       3.1502080
       5541.2900       3.1733020
       5542.7600       3.1628430
       5544.2300       3.0838470
       5545.7000       3.0099030
       5547.1700       3.0157380
       5548.6400       3.0709820
       5550.1100       3.0012150
       5551.5800       2.9690590
       5553.0500       2.9527920
       5554.5200       2.9655400
       5555.9900       2.9387130
       5557.4600       2.9156880
       5558.9300       2.9666580
       5560.4000       2.9976690
       5561.8700       2.9314040
       5563.3400       2.8865330
       5564.8100       2.8927000
       5566.2800       2.8943680
       5567.7500       2.8685250
       5569.2200       2.8540280
       5570.6900       2.9070120
       5572.1600       2.8221130
       5573.6300       2.8174060
       5575.1000       2.9297650
       5576.5700       2.9114020
       5578.0400       3.0178090
       5579.5100       3.0064800
       5580.9800       2.9894470
       5582.4500       2.9647280
       5583.9200       2.9023380
       5585.3900       2.9328510
       5586.8600       3.0564810
       5588.3300       3.0468870
       5589.8000       3.0022670
       5591.2700       3.0085690
       5592.7400       3.1126410
       5594.2100       3.1118680
       5595.6800       3.0931740
       5597.1500       3.1509640
       5598.6200       3.1291000
       5600.0900       3.1183190
       5601.5600       3.1820390
       5603.0300       3.2037080
       5604.5000       3.2300990
       5605.9700       3.3154440
       5607.4400       3.2740550
       5608.9100       3.3108580
       5610.3800       3.3770070
       5611.8500       3.3773240
       5613.3200       3.4186820
       5614.7900       3.4474190
       5616.2600       3.4639220
       5617.7300       3.5363750
       5619.2000       3.5351370
       5620.6700       3.5107020
       5622.1400       3.6370020
       5623.6099       3.6561010
       5625.0800       3.6230260
       5626.5500       3.6005240
       5628.0200       3.6395670
       5629.4900       3.6546080
       5630.9600       3.8169970
       5632.4300       3.8182700
       5633.9000       3.7817240
       5635.3700       3.7657990
       5636.8400       3.6398760
       5638.3100       3.7352830
       5639.7800       3.8410180
       5641.2500       3.6811100
       5642.7200       3.6190470
       5644.1900       3.7725860
       5645.6600       3.7208760
       5647.1300       3.6757560
       5648.6000       3.7640910
       5650.0700       3.6435080
       5651.5400       3.6308830
       5653.0100       3.5924540
       5654.4800       3.5636060
       5655.9500       3.6058710
       5657.4200       3.5091570
       5658.8900       3.5822020
       5660.3600       3.5270840
       5661.8300       3.5270570
       5663.3000       3.4400680
       5664.7700       3.4050290
       5666.2400       3.3645020
       5667.7100       3.3269240
       5669.1800       3.2562330
       5670.6500       3.2242320
       5672.1200       3.2197000
       5673.5900       3.2504530
       5675.0600       3.1164450
       5676.5300       3.0474210
       5678.0000       3.0570690
       5679.4700       3.0017520
       5680.9400       2.9606300
       5682.4100       2.9793000
       5683.8800       2.9373490
       5685.3500       2.9097630
       5686.8200       2.8606300
       5688.2900       2.8215850
       5689.7600       2.7560940
       5691.2300       2.7543610
       5692.7000       2.7545940
       5694.1700       2.7287650
       5695.6400       2.7031670
       5697.1100       2.6734890
       5698.5800       2.6397750
       5700.0500       2.6145590
       5701.5200       2.5644770
       5702.9900       2.5686210
       5704.4600       2.5876060
       5705.9300       2.6099050
       5707.4000       2.5596820
       5708.8700       2.5234260
       5710.3400       2.5274260
       5711.8100       2.4618510
       5713.2800       2.4588330
       5714.7500       2.3907680
       5716.2200       2.3780750
       5717.6900       2.3435780
       5719.1600       2.3272920
       5720.6300       2.3943190
       5722.1000       2.3989120
       5723.5700       2.3761580
       5725.0400       2.3698790
       5726.5100       2.3572490
       5727.9800       2.3822940
       5729.4500       2.3859910
       5730.9200       2.3818910
       5732.3900       2.4277240
       5733.8600       2.4402640
       5735.3300       2.3880730
       5736.8000       2.4036380
       5738.2700       2.4701840
       5739.7400       2.4254870
       5741.2100       2.3773020
       5742.6800       2.3503250
       5744.1500       2.3695510
       5745.6200       2.3504220
       5747.0900       2.3050650
       5748.5600       2.3268370
       5750.0300       2.3846520
       5751.5000       2.3804850
       5752.9700       2.3301950
       5754.4400       2.3071570
       5755.9100       2.2813870
       5757.3800       2.2769020
       5758.8500       2.2677190
       5760.3200       2.2774360
       5761.7900       2.2882140
       5763.2600       2.3204610
       5764.7300       2.3261660
       5766.2000       2.3409140
       5767.6700       2.3519820
       5769.1400       2.2622150
       5770.6100       2.2592070
       5772.0800       2.2670620
       5773.5500       2.2669730
       5775.0200       2.2760480
       5776.4900       2.2774350
       5777.9600       2.2979980
       5779.4300       2.3010510
       5780.9000       2.3396660
       5782.3700       2.3156070
       5783.8400       2.2586150
       5785.3100       2.3090710
       5786.7800       2.3613470
       5788.2500       2.2516610
       5789.7200       2.2645750
       5791.1900       2.3208440
       5792.6600       2.3119580
       5794.1300       2.3762830
       5795.6000       2.3547690
       5797.0700       2.3574110
       5798.5400       2.3235920
       5800.0100       2.2356410
       5801.4800       2.2628800
       5802.9500       2.3407780
       5804.4200       2.3638660
       5805.8900       2.3801990
       5807.3600       2.3645280
       5808.8300       2.3669970
       5810.3000       2.4605020
       5811.7700       2.4650970
       5813.2400       2.4504400
       5814.7100       2.4857380
       5816.1800       2.5423540
       5817.6500       2.5805930
       5819.1200       2.5716650
       5820.5900       2.5942840
       5822.0600       2.6651340
       5823.5300       2.6582510
       5825.0000       2.6221250
       5826.4700       2.7539100
       5827.9400       2.8454020
       5829.4100       2.8087360
       5830.8800       2.8496030
       5832.3500       2.9193680
       5833.8200       2.8977360
       5835.2900       2.9579650
       5836.7600       2.9990360
       5838.2300       3.0355840
       5839.7000       3.0969080
       5841.1700       3.0947100
       5842.6400       3.0837090
       5844.1100       3.1456250
       5845.5800       3.2718470
       5847.0500       3.3557250
       5848.5200       3.3746760
       5849.9900       3.3777970
       5851.4600       3.1979860
       5852.9300       3.2341490
       5854.4000       3.2248010
       5855.8700       3.2389030
       5857.3400       3.2910800
       5858.8100       3.3311820
       5860.2800       3.3131630
       5861.7500       3.2765070
       5863.2200       3.2863020
       5864.6900       3.3161930
       5866.1600       3.3460640
       5867.6300       3.3487510
       5869.1000       3.3462880
       5870.5700       3.3630230
       5872.0400       3.4266140
       5873.5100       3.3604960
       5874.9800       3.3593460
       5876.4500       3.2908620
       5877.9200       3.1837450
       5879.3900       3.2433040
       5880.8600       3.3367620
       5882.3300       3.3095120
       5883.8000       3.3117920
       5885.2700       3.3092870
       5886.7400       3.2689670
       5888.2100       3.2874160
       5889.6800       3.2498310
       5891.1500       3.2917440
       5892.6200       3.2921020
       5894.0900       3.2753930
       5895.5600       3.2472250
       5897.0300       3.3362930
       5898.5000       3.3326960
       5899.9700       3.3259110
       5901.4400       3.3799050
       5902.9100       3.2660040
       5904.3800       3.3276900
       5905.8500       3.3413830
       5907.3200       3.4093700
       5908.7900       3.3242670
       5910.2600       3.3145660
       5911.7300       3.3042820
       5913.2000       3.2278500
       5914.6700       3.1534360
       5916.1400       3.2045650
       5917.6100       3.2298600
       5919.0800       3.1948580
       5920.5500       3.0962780
       5922.0200       3.1612850
       5923.4900       3.1181390
       5924.9600       3.1209250
       5926.4300       3.2493830
       5927.9000       3.2058280
       5929.3700       3.2081870
       5930.8400       3.1858010
       5932.3100       3.2470370
       5933.7800       3.3192460
       5935.2500       3.2493340
       5936.7199       3.2274300
       5938.1900       3.2393920
       5939.6600       3.2782720
       5941.1300       3.2842150
       5942.6000       3.2316950
       5944.0700       3.2548310
       5945.5400       3.2804810
       5947.0100       3.2430400
       5948.4800       3.2500520
       5949.9500       3.2652880
       5951.4200       3.1918260
       5952.8900       3.1839070
       5954.3600       3.1502520
       5955.8300       3.1392330
       5957.3000       3.1722390
       5958.7700       3.1657600
       5960.2400       3.1531630
       5961.7100       3.1334690
       5963.1800       3.1563430
       5964.6500       3.2029660
       5966.1200       3.1637280
       5967.5900       3.0823770
       5969.0600       3.0973230
       5970.5300       3.0776380
       5972.0000       3.0233000
       5973.4700       3.0737200
       5974.9400       3.0498040
       5976.4100       3.0091600
       5977.8800       3.0032900
       5979.3500       2.9718430
       5980.8200       2.9888350
       5982.2900       3.0063150
       5983.7600       3.0268920
       5985.2300       3.0314930
       5986.7000       2.9957510
       5988.1700       3.0046530
       5989.6400       3.0144950
       5991.1100       2.9277240
       5992.5800       2.9305230
       5994.0500       2.9618550
       5995.5200       2.9203650
       5996.9900       2.9734030
       5998.4600       2.9621640
       5999.9300       2.9139910
       6001.4000       2.8789490
       6002.8700       2.8525770
       6004.3400       2.8816400
       6005.8100       2.8069660
       6007.2800       2.8081100
       6008.7500       2.8386880
       6010.2200       2.7647330
       6011.6900       2.6999350
       6013.1600       2.7046190
       6014.6300       2.7081040
       6016.1000       2.6535970
       6017.5700       2.6886750
       6019.0400       2.6861480
       6020.5100       2.6653180
       6021.9800       2.6886530
       6023.4500       2.6389480
       6024.9200       2.6156110
       6026.3900       2.5577690
       6027.8600       2.6084820
       6029.3300       2.5981680
       6030.8000       2.5726090
       6032.2700       2.6015080
       6033.7400       2.5602570
       6035.2100       2.6647180
       6036.6800       2.6148780
       6038.1500       2.6266330
       6039.6200       2.5980670
       6041.0900       2.5594140
       6042.5600       2.4821520
       6044.0300       2.4203300
       6045.5000       2.4432740
       6046.9700       2.4610410
       6048.4400       2.4673670
       6049.9100       2.5204900
       6051.3800       2.4837870
       6052.8500       2.4453490
       6054.3200       2.4621600
       6055.7900       2.4738610
       6057.2600       2.4336640
       6058.7300       2.4202550
       6060.2000       2.4676260
       6061.6700       2.4903370
       6063.1400       2.4138040
       6064.6100       2.4527270
       6066.0800       2.4506850
       6067.5500       2.4310690
       6069.0200       2.4300430
       6070.4900       2.4719150
       6071.9600       2.4909200
       6073.4300       2.4965830
       6074.9000       2.4283760
       6076.3700       2.4218010
       6077.8400       2.4116540
       6079.3100       2.4028550
       6080.7800       2.3987790
       6082.2500       2.3549950
       6083.7200       2.4253380
       6085.1900       2.4294850
       6086.6600       2.3903030
       6088.1300       2.4285920
       6089.6000       2.4852290
       6091.0700       2.4276250
       6092.5400       2.3779770
       6094.0100       2.3670350
       6095.4800       2.4192510
       6096.9500       2.4294080
       6098.4200       2.3965490
       6099.8900       2.3898710
       6101.3600       2.3761860
       6102.8300       2.4053720
       6104.3000       2.4286620
       6105.7700       2.4022130
       6107.2400       2.3840840
       6108.7100       2.3708760
       6110.1800       2.4035650
       6111.6500       2.4114000
       6113.1200       2.3728470
       6114.5900       2.4133880
       6116.0600       2.4845650
       6117.5300       2.4087320
       6119.0000       2.3662280
       6120.4700       2.4297990
       6121.9400       2.4369430
       6123.4100       2.4444180
       6124.8800       2.5010000
       6126.3500       2.4677300
       6127.8200       2.4587740
       6129.2900       2.5089860
       6130.7600       2.4853680
       6132.2300       2.4699230
       6133.7000       2.4875530
       6135.1700       2.5074010
       6136.6400       2.5121640
       6138.1100       2.5248190
       6139.5800       2.5713940
       6141.0500       2.5729490
       6142.5200       2.5652480
       6143.9900       2.5904530
       6145.4600       2.6350060
       6146.9300       2.6177430
       6148.4000       2.6253610
       6149.8700       2.6763230
       6151.3400       2.6325710
       6152.8100       2.6471850
       6154.2800       2.6733800
       6155.7500       2.6398440
       6157.2200       2.6539480
       6158.6900       2.7024190
       6160.1600       2.7268410
       6161.6300       2.7254350
       6163.1000       2.7428930
       6164.5700       2.7866520
       6166.0400       2.7721390
       6167.5100       2.7345290
       6168.9800       2.7129500
       6170.4500       2.7364000
       6171.9200       2.8063370
       6173.3900       2.8445220
       6174.8600       2.8781690
       6176.3300       2.8657450
       6177.8000       2.8062490
       6179.2700       2.8120780
       6180.7400       2.8223160
       6182.2100       2.8154820
       6183.6800       2.8764120
       6185.1500       2.8846960
       6186.6200       2.8670500
       6188.0900       2.8502500
       6189.5600       2.8117830
       6191.0300       2.9124600
       6192.5000       2.9426360
       6193.9700       2.8989590
       6195.4400       2.9489600
       6196.9100       2.9571510
       6198.3800       2.9011610
       6199.8500       2.8748840
       6201.3200       2.8922840
       6202.7900       2.8705520
       6204.2600       2.8892140
       6205.7300       2.9105330
       6207.2000       2.8278410
       6208.6700       2.8027990
       6210.1400       2.8299970
       6211.6100       2.7865470
       6213.0800       2.7643980
       6214.5500       2.7769500
       6216.0200       2.7861180
       6217.4900       2.7359800
       6218.9600       2.7133590
       6220.4300       2.7435500
       6221.9000       2.7346540
       6223.3700       2.7683480
       6224.8400       2.7411210
       6226.3100       2.7022140
       6227.7800       2.8415110
       6229.2500       2.8206890
       6230.7200       2.6718350
       6232.1900       2.7450930
       6233.6600       2.7431820
       6235.1300       2.7230290
       6236.6000       2.6551010
       6238.0700       2.6557810
       6239.5400       2.6254670
       6241.0100       2.6262140
       6242.4800       2.6634460
       6243.9500       2.6776980
       6245.4200       2.6661970
       6246.8900       2.6144150
       6248.3600       2.6217480
       6249.8299       2.6333100
       6251.3000       2.7109260
       6252.7700       2.7078770
       6254.2400       2.6182850
       6255.7100       2.6298940
       6257.1800       2.7005340
       6258.6500       2.7524220
       6260.1200       2.7014410
       6261.5900       2.6594800
       6263.0600       2.5776190
       6264.5300       2.6050570
       6266.0000       2.5544040
       6267.4700       2.5863660
       6268.9400       2.5176840
       6270.4100       2.5194040
       6271.8800       2.5546820
       6273.3500       2.5159760
       6274.8200       2.4602050
       6276.2900       2.4258140
       6277.7600       2.4398260
       6279.2300       2.5773670
       6280.7000       2.5591100
       6282.1700       2.4434290
       6283.6400       2.4419980
       6285.1100       2.4739330
       6286.5800       2.4717800
       6288.0500       2.4932840
       6289.5200       2.4874620
       6290.9900       2.4460060
       6292.4600       2.4290740
       6293.9300       2.4392130
       6295.4000       2.4495940
       6296.8700       2.4246440
       6298.3400       2.3619760
       6299.8100       2.3639310
       6301.2800       2.3986960
       6302.7500       2.4087060
       6304.2200       2.3324180
       6305.6900       2.3761130
       6307.1600       2.3770640
       6308.6300       2.3319850
       6310.1000       2.3550840
       6311.5700       2.3181500
       6313.0400       2.3213960
       6314.5100       2.3771190
       6315.9800       2.3738130
       6317.4500       2.3291110
       6318.9200       2.3380930
       6320.3900       2.3854810
       6321.8600       2.3821020
       6323.3300       2.3972110
       6324.8000       2.3670320
       6326.2700       2.3677170
       6327.7400       2.3727880
       6329.2100       2.3377830
       6330.6800       2.3794420
       6332.1500       2.3885990
       6333.6200       2.3094160
       6335.0900       2.2944390
       6336.5600       2.3194330
       6338.0300       2.3154890
       6339.5000       2.3572900
       6340.9700       2.3385730
       6342.4400       2.3828150
       6343.9100       2.4072070
       6345.3800       2.3938220
       6346.8500       2.3837060
       6348.3200       2.3626950
       6349.7900       2.3900500
       6351.2600       2.3777630
       6352.7300       2.3572870
       6354.2000       2.3962810
       6355.6700       2.4339140
       6357.1400       2.4124820
       6358.6100       2.3957210
       6360.0800       2.3995290
       6361.5500       2.4100390
       6363.0200       2.4188990
       6364.4900       2.3758240
       6365.9600       2.3739400
       6367.4300       2.3923610
       6368.9000       2.3873650
       6370.3700       2.4334000
       6371.8400       2.4448480
       6373.3100       2.4307020
       6374.7800       2.4227600
       6376.2500       2.3797790
       6377.7200       2.4290290
       6379.1900       2.4911700
       6380.6600       2.4648800
       6382.1300       2.4501090
       6383.6000       2.4402520
       6385.0700       2.4820970
       6386.5400       2.4998130
       6388.0100       2.5315220
       6389.4800       2.6039000
       6390.9500       2.5307240
       6392.4200       2.4374530
       6393.8900       2.4801040
       6395.3600       2.5446520
       6396.8300       2.5673030
       6398.3000       2.5459250
       6399.7700       2.5137470
       6401.2400       2.5252830
       6402.7100       2.5504010
       6404.1800       2.5423430
       6405.6500       2.5339470
       6407.1200       2.5590580
       6408.5900       2.5634520
       6410.0600       2.5485570
       6411.5300       2.5763530
       6413.0000       2.6332230
       6414.4700       2.7117060
       6415.9400       2.6774320
       6417.4100       2.6669010
       6418.8800       2.7233070
       6420.3500       2.7241080
       6421.8200       2.7097520
       6423.2900       2.7569970
       6424.7600       2.8336640
       6426.2300       2.8280780
       6427.7000       2.7451660
       6429.1700       2.7868610
       6430.6400       2.8150840
       6432.1100       2.8087170
       6433.5800       2.8162520
       6435.0500       2.7502420
       6436.5200       2.7924320
       6437.9900       2.8347000
       6439.4600       2.8663280
       6440.9300       2.8759570
       6442.4000       2.9009240
       6443.8700       2.9226380
       6445.3400       2.9764060
       6446.8100       3.0551830
       6448.2800       2.9902000
       6449.7500       3.0101100
       6451.2200       2.9997360
       6452.6900       2.9777610
       6454.1600       3.0695750
       6455.6300       3.1004040
       6457.1000       3.0647890
       6458.5700       3.0464650
       6460.0400       3.0439850
       6461.5100       3.0226240
       6462.9800       3.0615580
       6464.4500       3.0489490
       6465.9200       3.0315780
       6467.3900       3.0219170
       6468.8600       3.0539690
       6470.3300       3.0071760
       6471.8000       3.0409210
       6473.2700       3.0647580
       6474.7400       2.9682720
       6476.2100       3.0307620
       6477.6800       3.0473980
       6479.1500       3.0773730
       6480.6200       3.0093510
       6482.0900       3.0638240
       6483.5600       3.1598010
       6485.0300       3.0766700
       6486.5000       3.0252290
       6487.9700       3.0075910
       6489.4400       3.0090930
       6490.9100       3.0074320
       6492.3800       3.0237450
       6493.8500       3.0065540
       6495.3200       3.0124910
       6496.7900       3.0926950
       6498.2600       3.0295100
       6499.7300       2.9905350
       6501.2000       3.0120750
       6502.6700       3.0024610
       6504.1400       2.9851560
       6505.6100       2.9821530
       6507.0800       3.0425800
       6508.5500       2.9928940
       6510.0200       3.0008980
       6511.4900       3.0554580
       6512.9600       3.1003490
       6514.4300       3.1076620
       6515.9000       3.1286700
       6517.3700       3.1275380
       6518.8400       3.0556200
       6520.3100       3.1057840
       6521.7800       3.2480510
       6523.2500       3.1869180
       6524.7200       3.0964330
       6526.1900       3.1221100
       6527.6600       3.1371680
       6529.1300       3.1527310
       6530.6000       3.1781910
       6532.0700       3.1355320
       6533.5400       3.0912230
       6535.0100       3.1473320
       6536.4800       3.1862820
       6537.9500       3.2426890
       6539.4200       3.3002960
       6540.8900       3.2769780
       6542.3600       3.2114930
       6543.8300       3.2216550
       6545.3000       3.2100700
       6546.7700       3.1842630
       6548.2400       3.2396040
       6549.7100       3.2658470
       6551.1800       3.3049170
       6552.6500       3.3229160
       6554.1200       3.2547380
       6555.5900       3.2479430
       6557.0600       3.2723260
       6558.5300       3.2405050
       6560.0000       3.1989000
       6561.4700       3.2019080
       6562.9399       3.2106820
       6564.4100       3.2518760
       6565.8800       3.2589840
       6567.3500       3.2189700
       6568.8200       3.1763990
       6570.2900       3.1163630
       6571.7600       3.1545640
       6573.2300       3.2279230
       6574.7000       3.2447560
       6576.1700       3.2178770
       6577.6400       3.1764520
       6579.1100       3.1725080
       6580.5800       3.1857690
       6582.0500       3.1956530
       6583.5200       3.2072430
       6584.9900       3.2508420
       6586.4600       3.2897620
       6587.9300       3.3205770
       6589.4000       3.3997160
       6590.8700       3.4645460
       6592.3400       3.4816420
       6593.8100       3.5042280
       6595.2800       3.4844280
       6596.7500       3.3252520
       6598.2200       3.1975450
       6599.6900       3.1469120
       6601.1600       3.1031670
       6602.6300       3.0750100
       6604.1000       3.0966290
       6605.5700       3.1525920
       6607.0400       3.1531620
       6608.5100       3.1097870
       6609.9800       3.1084030
       6611.4500       3.1742640
       6612.9200       3.2305460
       6614.3900       3.3087740
       6615.8600       3.3599960
       6617.3300       3.2216550
       6618.8000       3.1202810
       6620.2700       3.1252760
       6621.7400       3.1430090
       6623.2100       3.1750700
       6624.6800       3.1596590
       6626.1500       3.2016810
       6627.6200       3.2575260
       6629.0900       3.2575660
       6630.5600       3.1981340
       6632.0300       3.1697920
       6633.5000       3.2107610
       6634.9700       3.1328750
       6636.4400       3.1473590
       6637.9100       3.1191560
       6639.3800       3.0833720
       6640.8500       3.1336260
       6642.3200       3.1639320
       6643.7900       3.1719070
       6645.2600       3.1554820
       6646.7300       3.0725020
       6648.2000       3.0817830
       6649.6700       3.0662530
       6651.1400       3.0464770
       6652.6100       3.0981090
       6654.0800       3.1117940
       6655.5500       3.1500000
       6657.0200       3.1646220
       6658.4900       3.1901140
       6659.9600       3.1385710
       6661.4300       3.2041290
       6662.9000       3.2667070
       6664.3700       3.1462310
       6665.8400       3.1580950
       6667.3100       3.2309740
       6668.7800       3.1548030
       6670.2500       3.1389640
       6671.7200       3.1083770
       6673.1900       3.0817930
       6674.6600       3.0394280
       6676.1300       3.0247510
       6677.6000       3.0259270
       6679.0700       3.0438390
       6680.5400       2.9697760
       6682.0100       2.9401410
       6683.4800       2.9407560
       6684.9500       2.9999570
       6686.4200       2.9968400
       6687.8900       2.9617480
       6689.3600       2.9210870
       6690.8300       2.9173170
       6692.3000       2.9558550
       6693.7700       2.9718660
       6695.2400       2.9810560
       6696.7100       2.9951450
       6698.1800       3.0509760
       6699.6500       2.9712190
       6701.1200       2.9219710
       6702.5900       2.9174030
       6704.0600       2.9423690
       6705.5300       2.9590360
       6707.0000       2.9606390
       6708.4700       2.9307640
       6709.9400       2.8759560
       6711.4100       2.8652270
       6712.8800       2.8121300
       6714.3500       2.7889080
       6715.8200       2.8016530
       6717.2900       2.8399270
       6718.7600       2.8852160
       6720.2300       2.8897010
       6721.7000       2.8407030
       6723.1700       2.8242450
       6724.6400       2.8335190
       6726.1100       2.8265250
       6727.5800       2.8587840
       6729.0500       2.8711140
       6730.5200       2.8786210
       6731.9900       2.8799220
       6733.4600       2.8772230
       6734.9300       2.8543110
       6736.4000       2.8845510
       6737.8700       2.9482880
       6739.3400       2.9331310
       6740.8100       2.9568730
       6742.2800       2.9758470
       6743.7500       2.9387680
       6745.2200       2.9580860
       6746.6900       2.9721820
       6748.1600       3.0018360
       6749.6300       2.9649960
       6751.1000       2.8521160
       6752.5700       2.8917300
       6754.0400       2.9126790
       6755.5100       2.8985250
       6756.9800       2.9104660
       6758.4500       2.8879290
       6759.9200       2.9014590
       6761.3900       3.0330880
       6762.8600       3.0558400
       6764.3300       2.9511580
       6765.8000       2.8820180
       6767.2700       2.9264080
       6768.7400       2.9550640
       6770.2100       2.9278000
       6771.6800       2.9497050
       6773.1500       2.9288360
       6774.6200       2.8799670
       6776.0900       2.9421940
       6777.5600       3.0153830
       6779.0300       2.9882210
       6780.5000       2.9691490
       6781.9700       3.0019540
       6783.4400       2.9700750
       6784.9100       2.9023480
       6786.3800       2.9011940
       6787.8500       2.9217370
       6789.3200       2.9398410
       6790.7900       2.8837080
       6792.2600       2.8054090
       6793.7300       2.8055000
       6795.2000       2.8060560
       6796.6700       2.8360760
       6798.1400       2.8668140
       6799.6100       2.8304260
       6801.0800       2.7679210
       6802.5500       2.7348790
       6804.0200       2.7280500
       6805.4900       2.7195000
       6806.9600       2.7338920
       6808.4300       2.7476290
       6809.9000       2.6659330
       6811.3700       2.6299850
       6812.8400       2.6927360
       6814.3100       2.7153040
       6815.7800       2.7592730
       6817.2500       2.7203140
       6818.7200       2.6986260
       6820.1900       2.7422990
       6821.6600       2.7386480
       6823.1300       2.7214960
       6824.6000       2.6828110
       6826.0700       2.6131860
       6827.5400       2.6020700
       6829.0100       2.6554430
       6830.4800       2.7013530
       6831.9500       2.6339470
       6833.4200       2.5531880
       6834.8900       2.5268410
       6836.3600       2.4912750
       6837.8300       2.4586510
       6839.3000       2.4886640
       6840.7700       2.4960400
       6842.2400       2.4828250
       6843.7100       2.4862890
       6845.1800       2.4227370
       6846.6500       2.3656780
       6848.1200       2.3863120
       6849.5900       2.3944570
       6851.0600       2.3969890
       6852.5300       2.4244670
       6854.0000       2.3854820
       6855.4700       2.3526320
       6856.9400       2.3543270
       6858.4100       2.3675520
       6859.8800       2.4615510
       6861.3500       2.4742190
       6862.8200       2.4502570
       6864.2900       2.3817650
       6865.7600       2.4137010
       6867.2300       2.4258740
       6868.7000       2.3499320
       6870.1700       2.3777770
       6871.6400       2.4255380
       6873.1100       2.3670450
       6874.5800       2.3199710
       6876.0499       2.3732070
       6877.5200       2.3671370
       6878.9900       2.3053000
       6880.4600       2.3325330
       6881.9300       2.4016850
       6883.4000       2.3540050
       6884.8700       2.3708050
       6886.3400       2.3684400
       6887.8100       2.2559470
       6889.2800       2.2225970
       6890.7500       2.3257090
       6892.2200       2.4047100
       6893.6900       2.4220040
       6895.1600       2.3790940
       6896.6300       2.3955570
       6898.1000       2.4676400
       6899.5700       2.4212020
       6901.0400       2.3762500
       6902.5100       2.3507520
       6903.9800       2.3939700
       6905.4500       2.4980430
       6906.9200       2.4655300
       6908.3900       2.4195480
       6909.8600       2.4086810
       6911.3300       2.3773420
       6912.8000       2.3838230
       6914.2700       2.4135910
       6915.7400       2.4528630
       6917.2100       2.4733960
       6918.6800       2.3904100
       6920.1500       2.4037430
       6921.6200       2.4016920
       6923.0900       2.3534490
       6924.5600       2.3367480
       6926.0300       2.3912450
       6927.5000       2.3669840
       6928.9700       2.4008830
       6930.4400       2.5121980
       6931.9100       2.5202220
       6933.3800       2.5062140
       6934.8500       2.4907430
       6936.3200       2.5475840
       6937.7900       2.5936810
       6939.2600       2.6604460
       6940.7300       2.6103080
       6942.2000       2.6158360
       6943.6700       2.7196640
       6945.1400       2.6999760
       6946.6100       2.6231400
       6948.0800       2.6020020
       6949.5500       2.6076990
       6951.0200       2.6691130
       6952.4900       2.7264190
       6953.9600       2.6758190
       6955.4300       2.5525770
       6956.9000       2.5152330
       6958.3700       2.6020000
       6959.8400       2.6935730
       6961.3100       2.6341820
       6962.7800       2.6348510
       6964.2500       2.7058120
       6965.7200       2.6519610
       6967.1900       2.6395750
       6968.6600       2.6604980
       6970.1300       2.7433680
       6971.6000       2.7339810
       6973.0700       2.6867230
       6974.5400       2.7284830
       6976.0100       2.7320640
       6977.4800       2.7324250
       6978.9500       2.7338680
       6980.4200       2.7045730
       6981.8900       2.6579850
       6983.3600       2.6083240
       6984.8300       2.5837720
       6986.3000       2.5263360
       6987.7700       2.5251120
       6989.2400       2.6023110
       6990.7100       2.5851190
       6992.1800       2.5800710
       6993.6500       2.5857500
       6995.1200       2.5961000
       6996.5900       2.5628010
       6998.0600       2.5329400
       6999.5300       2.5456140
       7001.0000       2.5356430
       7002.4700       2.5347130
       7003.9400       2.5515440
       7005.4100       2.5893750
       7006.8800       2.5712430
       7008.3500       2.5705580
       7009.8200       2.6102040
       7011.2900       2.5285490
       7012.7600       2.4997990
       7014.2300       2.5177060
       7015.7000       2.6682440
       7017.1700       2.6341450
       7018.6400       2.4294760
       7020.1100       2.3622010
       7021.5800       2.3508860
       7023.0500       2.3579280
       7024.5200       2.3754500
       7025.9900       2.3488040
       7027.4600       2.2863220
       7028.9300       2.3046490
       7030.4000       2.3765390
       7031.8700       2.3702760
       7033.3400       2.3630290
       7034.8100       2.3752540
       7036.2800       2.3530270
       7037.7500       2.3757410
       7039.2200       2.3926780
       7040.6900       2.3510320
       7042.1600       2.4045970
       7043.6300       2.4789950
       7045.1000       2.4772470
       7046.5700       2.4906590
       7048.0400       2.4637750
       7049.5100       2.3979540
       7050.9800       2.3491430
       7052.4500       2.3195270
       7053.9200       2.3584860
       7055.3900       2.3575980
       7056.8600       2.2895620
       7058.3300       2.2830740
       7059.8000       2.3072250
       7061.2700       2.3327250
       7062.7400       2.3806270
       7064.2100       2.4010420
       7065.6800       2.3677340
       7067.1500       2.3771510
       7068.6200       2.3848050
       7070.0900       2.3719300
       7071.5600       2.4144570
       7073.0300       2.4292120
       7074.5000       2.4080900
       7075.9700       2.4377140
       7077.4400       2.4285830
       7078.9100       2.3711990
       7080.3800       2.3451680
       7081.8500       2.3199090
       7083.3200       2.3089680
       7084.7900       2.3105400
       7086.2600       2.3062520
       7087.7300       2.2733620
       7089.2000       2.2561160
       7090.6700       2.2831990
       7092.1400       2.2979670
       7093.6100       2.3091620
       7095.0800       2.3057380
       7096.5500       2.3007240
       7098.0200       2.2936030
       7099.4900       2.2792350
       7100.9600       2.3299710
       7102.4300       2.4123020
       7103.9000       2.4291930
       7105.3700       2.4024510
       7106.8400       2.3568430
       7108.3100       2.3185630
       7109.7800       2.3159740
       7111.2500       2.3184240
       7112.7200       2.3269350
       7114.1900       2.3336010
       7115.6600       2.3223490
       7117.1300       2.3060170
       7118.6000       2.3076100
       7120.0700       2.3099420
       7121.5400       2.3107710
       7123.0100       2.3263950
       7124.4800       2.3031580
       7125.9500       2.2825880
       7127.4200       2.3283020
       7128.8900       2.3664700
       7130.3600       2.3684870
       7131.8300       2.3717630
       7133.3000       2.3563540
       7134.7700       2.3483840
       7136.2400       2.4303510
       7137.7100       2.4224360
       7139.1800       2.3456750
       7140.6500       2.3286970
       7142.1200       2.2912220
       7143.5900       2.2948180
       7145.0600       2.2991260
       7146.5300       2.2328210
       7148.0000       2.2332630
       7149.4700       2.2393640
       7150.9400       2.2345510
       7152.4100       2.2297680
       7153.8800       2.2447660
       7155.3500       2.2700670
       7156.8200       2.2704790
       7158.2900       2.3217680
       7159.7600       2.3519800
       7161.2300       2.3224660
       7162.7000       2.3212340
       7164.1700       2.3322510
       7165.6400       2.2959280
       7167.1100       2.2906820
       7168.5800       2.3122120
       7170.0500       2.3204900
       7171.5200       2.3580280
       7172.9900       2.3573750
       7174.4600       2.3624770
       7175.9300       2.3292830
       7177.4000       2.2432990
       7178.8700       2.2411300
       7180.3400       2.2585130
       7181.8100       2.2446200
       7183.2800       2.2798310
       7184.7500       2.2673100
       7186.2200       2.2072590
       7187.6900       2.2723910
       7189.1599       2.2662640
       7190.6300       2.2242070
       7192.1000       2.2230970
       7193.5700       2.2117740
       7195.0400       2.2810070
       7196.5100       2.3085530
       7197.9800       2.2952130
       7199.4500       2.3156670
       7200.9200       2.3390110
       7202.3900       2.3241890
       7203.8600       2.3089900
       7205.3300       2.3580530
       7206.8000       2.4121350
       7208.2700       2.3963110
       7209.7400       2.3956920
       7211.2100       2.4105160
       7212.6800       2.3948170
       7214.1500       2.3761490
       7215.6200       2.4021710
       7217.0900       2.3784450
       7218.5600       2.3554470
       7220.0300       2.3782940
       7221.5000       2.3621100
       7222.9700       2.3483560
       7224.4400       2.3363940
       7225.9100       2.3696720
       7227.3800       2.4308470
       7228.8500       2.4613480
       7230.3200       2.4426880
       7231.7900       2.3696560
       7233.2600       2.3633920
       7234.7300       2.3770010
       7236.2000       2.3505330
       7237.6700       2.3968580
       7239.1400       2.4952200
       7240.6100       2.5956780
       7242.0800       2.6447180
       7243.5500       2.6121300
       7245.0200       2.5862030
       7246.4900       2.6037200
       7247.9600       2.5230900
       7249.4300       2.4894670
       7250.9000       2.5228060
       7252.3700       2.4524180
       7253.8400       2.3848320
       7255.3100       2.4497710
       7256.7800       2.4775040
       7258.2500       2.4517760
       7259.7200       2.4292400
       7261.1900       2.3937350
       7262.6600       2.4030580
       7264.1300       2.4084100
       7265.6000       2.3261440
       7267.0700       2.3722420
       7268.5400       2.5039860
       7270.0100       2.4786720
       7271.4800       2.4584620
       7272.9500       2.4578700
       7274.4200       2.4881700
       7275.8900       2.5956620
       7277.3600       2.6476300
       7278.8300       2.6102020
       7280.3000       2.5715170
       7281.7700       2.5717590
       7283.2400       2.6134610
       7284.7100       2.5538480
       7286.1800       2.4935950
       7287.6500       2.5094640
       7289.1200       2.4776100
       7290.5900       2.4428530
       7292.0600       2.4029680
       7293.5300       2.4142270
       7295.0000       2.4381500
       7296.4700       2.4164520
       7297.9400       2.3669670
       7299.4100       2.3080320
       7300.8800       2.2635850
       7302.3500       2.3075800
       7303.8200       2.3992680
       7305.2900       2.3299720
       7306.7600       2.2922190
       7308.2300       2.3848960
       7309.7000       2.4148680
       7311.1700       2.3704560
       7312.6400       2.3982990
       7314.1100       2.5389820
       7315.5800       2.5908590
       7317.0500       2.4907430
       7318.5200       2.4801700
       7319.9900       2.5642080
       7321.4600       2.5618880
       7322.9300       2.4766710
       7324.4000       2.4797490
       7325.8700       2.4296540
       7327.3400       2.3928400
       7328.8100       2.4268340
       7330.2800       2.4624040
       7331.7500       2.4816900
       7333.2200       2.4711430
       7334.6900       2.4278550
       7336.1600       2.4000170
       7337.6300       2.3998620
       7339.1000       2.4158830
       7340.5700       2.4168690
       7342.0400       2.3563290
       7343.5100       2.2877660
       7344.9800       2.2912170
       7346.4500       2.3202050
       7347.9200       2.3276030
       7349.3900       2.3908330
       7350.8600       2.4342430
       7352.3300       2.4447570
       7353.8000       2.4861630
       7355.2700       2.4909200
       7356.7400       2.4681220
       7358.2100       2.4556290
       7359.6800       2.4702390
       7361.1500       2.5459880
       7362.6200       2.5401670
       7364.0900       2.4280820
       7365.5600       2.4211130
       7367.0300       2.5007190
       7368.5000       2.5587550
       7369.9700       2.5138010
       7371.4400       2.4418820
       7372.9100       2.4002690
       7374.3800       2.4004150
       7375.8500       2.4282360
       7377.3200       2.4388010
       7378.7900       2.4057020
       7380.2600       2.3916940
       7381.7300       2.4685700
       7383.2000       2.4851090
       7384.6700       2.4992420
       7386.1400       2.5397600
       7387.6100       2.5403010
       7389.0800       2.5319450
       7390.5500       2.4924530
       7392.0200       2.3828350
       7393.4900       2.4024110
       7394.9600       2.4895670
       7396.4300       2.4254360
       7397.9000       2.3836850
       7399.3700       2.3836670
       7400.8400       2.3664220
       7402.3100       2.3997320
       7403.7800       2.4990490
       7405.2500       2.5316490
       7406.7200       2.5290480
       7408.1900       2.5408740
       7409.6600       2.4621050
       7411.1300       2.4328140
       7412.6000       2.4538350
       7414.0700       2.4722070
       7415.5400       2.4950030
