Units are: observed wavelength (Ang), observed flux (10^-15 erg/s/cm^2/Ang)
       3442.3491       2.7666440
       3444.2968       2.7015180
       3446.2444       2.7225450
       3448.1921       2.6934550
       3450.1397       2.5528550
       3452.0873       2.6201260
       3454.0350       2.5341490
       3455.9826       2.6993580
       3457.9302       2.4950910
       3459.8779       2.5410320
       3461.8255       2.5044460
       3463.7732       2.3348300
       3465.7208       2.4361760
       3467.6684       2.4166560
       3469.6161       2.3318050
       3471.5637       2.4002340
       3473.5114       2.3024210
       3475.4590       2.3156280
       3477.4066       2.2399500
       3479.3543       2.3714020
       3481.3019       2.3491140
       3483.2496       2.4400840
       3485.1972       2.4590220
       3487.1448       2.3908070
       3489.0925       2.2650180
       3491.0401       2.3269440
       3492.9878       2.2657980
       3494.9354       2.3750490
       3496.8830       2.4011370
       3498.8307       2.3249590
       3500.7783       2.3193740
       3502.7260       2.3287640
       3504.6736       2.3168610
       3506.6212       2.3284200
       3508.5689       2.3550620
       3510.5165       2.3208490
       3512.4642       2.2802750
       3514.4118       2.3689350
       3516.3594       2.3112250
       3518.3071       2.3483010
       3520.2547       2.3943440
       3522.2023       2.3421930
       3524.1500       2.3182710
       3526.0976       2.3971070
       3528.0453       2.3294330
       3529.9929       2.3225230
       3531.9405       2.3343530
       3533.8882       2.3350880
       3535.8358       2.3041340
       3537.7835       2.2767040
       3539.7311       2.2860400
       3541.6787       2.2767820
       3543.6264       2.2667750
       3545.5740       2.1821150
       3547.5217       2.2801540
       3549.4693       2.2561140
       3551.4169       2.2176850
       3553.3646       2.2766360
       3555.3122       2.2876280
       3557.2599       2.2498990
       3559.2075       2.2366150
       3561.1551       2.1845250
       3563.1028       2.1556670
       3565.0504       2.2532370
       3566.9981       2.2040970
       3568.9457       2.2207470
       3570.8933       2.3051420
       3572.8410       2.1914500
       3574.7886       2.1763370
       3576.7363       2.2601870
       3578.6839       2.1876670
       3580.6315       2.1280580
       3582.5792       2.0660500
       3584.5268       2.0583450
       3586.4744       2.0994040
       3588.4221       2.1129520
       3590.3697       2.0985620
       3592.3174       2.1084720
       3594.2650       2.1009990
       3596.2126       2.0918910
       3598.1603       2.0696210
       3600.1079       2.1056710
       3602.0556       2.0643430
       3604.0032       2.0652820
       3605.9508       2.0387150
       3607.8985       2.0826840
       3609.8461       2.0705390
       3611.7938       1.9533950
       3613.7414       1.8662940
       3615.6890       1.8893820
       3617.6367       1.9654590
       3619.5843       1.9909170
       3621.5320       1.9801410
       3623.4796       1.9471220
       3625.4272       2.0226630
       3627.3749       1.9822740
       3629.3225       1.9968110
       3631.2702       2.0831480
       3633.2178       2.0739120
       3635.1654       2.0050060
       3637.1131       2.0386680
       3639.0607       2.0821040
       3641.0084       2.0666850
       3642.9560       2.1112040
       3644.9036       2.1101170
       3646.8513       2.0558560
       3648.7989       2.0537410
       3650.7465       2.1491070
       3652.6942       2.0851300
       3654.6418       2.0618050
       3656.5895       2.0741500
       3658.5371       2.0960350
       3660.4847       2.0831150
       3662.4324       2.0267880
       3664.3800       2.1259080
       3666.3277       2.0832320
       3668.2753       2.0426960
       3670.2229       2.0118860
       3672.1706       2.0008390
       3674.1182       2.0219420
       3676.0659       2.0319280
       3678.0135       2.0266410
       3679.9611       1.9819250
       3681.9088       1.9738130
       3683.8564       1.9613960
       3685.8041       1.8992010
       3687.7517       1.9285820
       3689.6993       1.9091460
       3691.6470       1.8805530
       3693.5946       1.8161180
       3695.5423       1.7805910
       3697.4899       1.7876450
       3699.4375       1.8117420
       3701.3852       1.7231090
       3703.3328       1.7050430
       3705.2805       1.6927440
       3707.2281       1.7094440
       3709.1757       1.7072310
       3711.1234       1.6553130
       3713.0710       1.7058430
       3715.0186       1.6353230
       3716.9663       1.6606280
       3718.9139       1.6933830
       3720.8616       1.6810110
       3722.8092       1.6771470
       3724.7568       1.7320140
       3726.7045       1.6926480
       3728.6521       1.6704750
       3730.5998       1.7130840
       3732.5474       1.7175010
       3734.4950       1.6363010
       3736.4427       1.6398950
       3738.3903       1.6237450
       3740.3380       1.6515960
       3742.2856       1.6555500
       3744.2332       1.6328700
       3746.1809       1.6111590
       3748.1285       1.5432150
       3750.0762       1.4967780
       3752.0238       1.4693960
       3753.9714       1.4598640
       3755.9191       1.3725400
       3757.8667       1.3184800
       3759.8144       1.3119140
       3761.7620       1.2920120
       3763.7096       1.2934240
       3765.6573       1.2997440
       3767.6049       1.3056170
       3769.5525       1.3133570
       3771.5002       1.3126750
       3773.4478       1.3407480
       3775.3955       1.3083980
       3777.3431       1.3066530
       3779.2907       1.3003920
       3781.2384       1.3330950
       3783.1860       1.3808440
       3785.1337       1.3540830
       3787.0813       1.3963270
       3789.0289       1.4063100
       3790.9766       1.4382900
       3792.9242       1.4807110
       3794.8719       1.4825450
       3796.8195       1.4665800
       3798.7671       1.4821330
       3800.7148       1.5393870
       3802.6624       1.5425630
       3804.6101       1.5680190
       3806.5577       1.5911100
       3808.5053       1.5862320
       3810.4530       1.5686720
       3812.4006       1.5719710
       3814.3483       1.5644210
       3816.2959       1.6270320
       3818.2435       1.6721210
       3820.1912       1.6517170
       3822.1388       1.6787150
       3824.0865       1.7170060
       3826.0341       1.6744180
       3827.9817       1.7198290
       3829.9294       1.7937230
       3831.8770       1.7843680
       3833.8246       1.8267920
       3835.7723       1.7791750
       3837.7199       1.7838040
       3839.6676       1.7877010
       3841.6152       1.7751140
       3843.5628       1.8069260
       3845.5105       1.8474430
       3847.4581       1.7876550
       3849.4058       1.7837410
       3851.3534       1.8139130
       3853.3010       1.8384400
       3855.2487       1.8188380
       3857.1963       1.8605200
       3859.1440       1.8982130
       3861.0916       1.8457360
       3863.0392       1.7923250
       3864.9869       1.7992390
       3866.9345       1.7987600
       3868.8822       1.7710530
       3870.8298       1.7758020
       3872.7774       1.8358810
       3874.7251       1.8017010
       3876.6727       1.7798880
       3878.6204       1.8052080
       3880.5680       1.8166420
       3882.5156       1.8183380
       3884.4633       1.8366160
       3886.4109       1.8710470
       3888.3586       1.8277250
       3890.3062       1.8243410
       3892.2538       1.8481830
       3894.2015       1.8108120
       3896.1491       1.7986970
       3898.0967       1.8134040
       3900.0444       1.7777450
       3901.9920       1.8352470
       3903.9397       1.7903100
       3905.8873       1.7923230
       3907.8349       1.7413340
       3909.7826       1.7797910
       3911.7302       1.7779310
       3913.6779       1.7264700
       3915.6255       1.7561610
       3917.5731       1.7811830
       3919.5208       1.7339010
       3921.4684       1.7189780
       3923.4161       1.7327180
       3925.3637       1.6968760
       3927.3113       1.7528930
       3929.2590       1.7172130
       3931.2066       1.6638210
       3933.1543       1.6126080
       3935.1019       1.6532670
       3937.0495       1.6978590
       3938.9972       1.7442930
       3940.9448       1.7104400
       3942.8925       1.6839700
       3944.8401       1.7174980
       3946.7877       1.7187550
       3948.7354       1.6856740
       3950.6830       1.6063040
       3952.6307       1.6131370
       3954.5783       1.6350430
       3956.5259       1.6628460
       3958.4736       1.6626750
       3960.4212       1.6552820
       3962.3688       1.6284400
       3964.3165       1.5994580
       3966.2641       1.5625180
       3968.2118       1.5295960
       3970.1594       1.5184340
       3972.1070       1.5301040
       3974.0547       1.5350110
       3976.0023       1.4970480
       3977.9500       1.4917350
       3979.8976       1.5458760
       3981.8452       1.5009550
       3983.7929       1.4779520
       3985.7405       1.4853980
       3987.6882       1.4885780
       3989.6358       1.4796150
       3991.5834       1.5208810
       3993.5311       1.5272560
       3995.4787       1.5071660
       3997.4264       1.5619370
       3999.3740       1.5654140
       4001.3216       1.5147470
       4003.2693       1.5067470
       4005.2169       1.4808440
       4007.1646       1.4991790
       4009.1122       1.5536980
       4011.0598       1.5237780
       4013.0075       1.5029730
       4014.9551       1.5636820
       4016.9028       1.5644460
       4018.8504       1.5277190
       4020.7980       1.5053450
       4022.7457       1.5237260
       4024.6933       1.5263850
       4026.6409       1.5084400
       4028.5886       1.5115690
       4030.5362       1.5534370
       4032.4839       1.5614910
       4034.4315       1.5345510
       4036.3791       1.5689340
       4038.3268       1.5915220
       4040.2744       1.5450030
       4042.2221       1.5211690
       4044.1697       1.5491040
       4046.1173       1.5446360
       4048.0650       1.5045120
       4050.0126       1.5315820
       4051.9603       1.5318810
       4053.9079       1.5247920
       4055.8555       1.5424980
       4057.8032       1.5240530
       4059.7508       1.5079230
       4061.6985       1.4760280
       4063.6461       1.4761410
       4065.5937       1.5072990
       4067.5414       1.5110160
       4069.4890       1.4632300
       4071.4367       1.4589220
       4073.3843       1.4634510
       4075.3319       1.4436760
       4077.2796       1.4709480
       4079.2272       1.4530530
       4081.1749       1.4367440
       4083.1225       1.4191680
       4085.0701       1.3722790
       4087.0178       1.3618480
       4088.9654       1.3723990
       4090.9130       1.3241370
       4092.8607       1.2990330
       4094.8083       1.2842260
       4096.7560       1.2507570
       4098.7036       1.2855960
       4100.6512       1.2670890
       4102.5989       1.2423440
       4104.5465       1.2333820
       4106.4942       1.2284950
       4108.4418       1.2601770
       4110.3894       1.2863320
       4112.3371       1.2795350
       4114.2847       1.2731620
       4116.2324       1.3137600
       4118.1800       1.3323400
       4120.1276       1.3581170
       4122.0753       1.3796490
       4124.0229       1.3398680
       4125.9706       1.3621830
       4127.9182       1.3725280
       4129.8658       1.3819680
       4131.8135       1.3843040
       4133.7611       1.3794180
       4135.7088       1.4110550
       4137.6564       1.4153390
       4139.6040       1.4172370
       4141.5517       1.4148780
       4143.4993       1.4161890
       4145.4469       1.4259630
       4147.3946       1.3599970
       4149.3422       1.4031700
       4151.2899       1.4265550
       4153.2375       1.4313390
       4155.1851       1.4179890
       4157.1328       1.4194730
       4159.0804       1.3686970
       4161.0281       1.3628890
       4162.9757       1.3599570
       4164.9233       1.3993080
       4166.8710       1.3784020
       4168.8186       1.3654710
       4170.7663       1.3658240
       4172.7139       1.3215760
       4174.6615       1.3210220
       4176.6092       1.3111450
       4178.5568       1.2976220
       4180.5045       1.3051230
       4182.4521       1.3214310
       4184.3997       1.3040130
       4186.3474       1.2846500
       4188.2950       1.2775580
       4190.2427       1.2813040
       4192.1903       1.2617980
       4194.1379       1.2770830
       4196.0856       1.2851390
       4198.0332       1.2700720
       4199.9809       1.2501220
       4201.9285       1.2725930
       4203.8761       1.2754210
       4205.8238       1.2720760
       4207.7714       1.2519650
       4209.7190       1.2622820
       4211.6667       1.2807250
       4213.6143       1.2514770
       4215.5620       1.2475640
       4217.5096       1.2562030
       4219.4572       1.2774190
       4221.4049       1.2801790
       4223.3525       1.2446840
       4225.3002       1.2445280
       4227.2478       1.2416610
       4229.1954       1.2333140
       4231.1431       1.2339940
       4233.0907       1.2538750
       4235.0384       1.2646920
       4236.9860       1.2794040
       4238.9336       1.2623950
       4240.8813       1.2450800
       4242.8289       1.2572660
       4244.7766       1.2411360
       4246.7242       1.2374220
       4248.6718       1.2177080
       4250.6195       1.2172320
       4252.5671       1.2002840
       4254.5148       1.1983810
       4256.4624       1.1921260
       4258.4100       1.2047290
       4260.3577       1.1922520
       4262.3053       1.2018600
       4264.2530       1.2240210
       4266.2006       1.2048060
       4268.1482       1.1951090
       4270.0959       1.1763280
       4272.0435       1.1730420
       4273.9911       1.1685580
       4275.9388       1.1736520
       4277.8864       1.1769510
       4279.8341       1.1469740
       4281.7817       1.1415340
       4283.7293       1.1620890
       4285.6770       1.1550490
       4287.6246       1.1521570
       4289.5723       1.1345890
       4291.5199       1.1182990
       4293.4675       1.0963440
       4295.4152       1.0679020
       4297.3628       1.0654000
       4299.3105       1.0589970
       4301.2581       1.0478550
       4303.2057       1.0404010
       4305.1534       1.0395940
       4307.1010       1.0552500
       4309.0487       1.0275240
       4310.9963       1.0434170
       4312.9439       1.0340080
       4314.8916       1.0434350
       4316.8392       1.0497610
       4318.7869       1.0797880
       4320.7345       1.0948580
       4322.6821       1.0970030
       4324.6298       1.0830000
       4326.5774       1.1139260
       4328.5251       1.1379680
       4330.4727       1.1514680
       4332.4203       1.1428880
       4334.3680       1.1788510
       4336.3156       1.1884830
       4338.2632       1.1680180
       4340.2109       1.2026410
       4342.1585       1.1898690
       4344.1062       1.1781140
       4346.0538       1.1977200
       4348.0014       1.2124400
       4349.9491       1.2147620
       4351.8967       1.1864480
       4353.8444       1.1829530
       4355.7920       1.1980230
       4357.7396       1.2048560
       4359.6873       1.1970210
       4361.6349       1.2038020
       4363.5826       1.2032360
       4365.5302       1.2061860
       4367.4778       1.2049650
       4369.4255       1.1995700
       4371.3731       1.2064190
       4373.3208       1.2057500
       4375.2684       1.1778210
       4377.2160       1.1793960
       4379.1637       1.1723340
       4381.1113       1.1710540
       4383.0590       1.1640980
       4385.0066       1.1549900
       4386.9542       1.1715820
       4388.9019       1.1811930
       4390.8495       1.1840720
       4392.7972       1.1572530
       4394.7448       1.1491040
       4396.6924       1.1742070
       4398.6401       1.1635310
       4400.5877       1.1402670
       4402.5353       1.1558250
       4404.4830       1.1709990
       4406.4306       1.1692340
       4408.3783       1.1592710
       4410.3259       1.1448110
       4412.2735       1.2054900
       4414.2212       1.1995930
       4416.1688       1.1683350
       4418.1165       1.1580060
       4420.0641       1.1761960
       4422.0117       1.1984440
       4423.9594       1.2016250
       4425.9070       1.2036130
       4427.8547       1.1813960
       4429.8023       1.1913900
       4431.7499       1.1909360
       4433.6976       1.2265370
       4435.6452       1.2292340
       4437.5929       1.1870260
       4439.5405       1.1852390
       4441.4881       1.1890430
       4443.4358       1.1837000
       4445.3834       1.1894770
       4447.3311       1.1737650
       4449.2787       1.1786850
       4451.2263       1.1806670
       4453.1740       1.1693810
       4455.1216       1.1961090
       4457.0693       1.1797670
       4459.0169       1.1714280
       4460.9645       1.1490140
       4462.9122       1.1428890
       4464.8598       1.1809380
       4466.8074       1.1547380
       4468.7551       1.1843320
       4470.7027       1.1669700
       4472.6504       1.1462910
       4474.5980       1.1478910
       4476.5456       1.1104490
       4478.4933       1.1358280
       4480.4409       1.1311870
       4482.3886       1.1024510
       4484.3362       1.0967660
       4486.2838       1.1347640
       4488.2315       1.1278920
       4490.1791       1.1167950
       4492.1268       1.1124360
       4494.0744       1.1083780
       4496.0220       1.1255360
       4497.9697       1.1149890
       4499.9173       1.1115980
       4501.8650       1.1250400
       4503.8126       1.1316580
       4505.7602       1.1296620
       4507.7079       1.1101770
       4509.6555       1.1127200
       4511.6032       1.1265250
       4513.5508       1.1124670
       4515.4984       1.1085860
       4517.4461       1.1177810
       4519.3937       1.0970480
       4521.3413       1.0972080
       4523.2890       1.1014130
       4525.2366       1.0875040
       4527.1843       1.0932360
       4529.1319       1.0960570
       4531.0795       1.0827960
       4533.0272       1.0863140
       4534.9748       1.1099620
       4536.9225       1.0843380
       4538.8701       1.0705320
       4540.8177       1.0763390
       4542.7654       1.0622560
       4544.7130       1.0633430
       4546.6607       1.0588400
       4548.6083       1.0507720
       4550.5559       1.0519020
       4552.5036       1.0564550
       4554.4512       1.0635050
       4556.3989       1.0459050
       4558.3465       1.0606640
       4560.2941       1.0545880
       4562.2418       1.0554170
       4564.1894       1.0555880
       4566.1371       1.0440400
       4568.0847       1.0485310
       4570.0323       1.0349060
       4571.9800       1.0249900
       4573.9276       1.0678290
       4575.8753       1.0520530
       4577.8229       1.0474040
       4579.7705       1.0237170
       4581.7182       1.0356240
       4583.6658       1.0374850
       4585.6134       1.0218800
       4587.5611       1.0339360
       4589.5087       1.0209700
       4591.4564       1.0264570
       4593.4040       1.0412670
       4595.3516       1.0324200
       4597.2993       1.0277610
       4599.2469       1.0198540
       4601.1946       1.0463050
       4603.1422       1.0241990
       4605.0898       1.0127720
       4607.0375       1.0337310
       4608.9851       1.0477620
       4610.9328       1.0146150
       4612.8804       1.0148430
       4614.8280       1.0234450
       4616.7757       1.0065770
       4618.7233       1.0084030
       4620.6710       1.0019720
       4622.6186      0.98743440
       4624.5662      0.98101460
       4626.5139      0.96630860
       4628.4615      0.97552050
       4630.4092      0.94690530
       4632.3568      0.95770340
       4634.3044      0.98268530
       4636.2521      0.94933710
       4638.1997      0.94688700
       4640.1474      0.95859100
       4642.0950      0.96694310
       4644.0426      0.94764560
       4645.9903      0.95798900
       4647.9379      0.94132560
       4649.8855      0.94557410
       4651.8332      0.92358130
       4653.7808      0.92760780
       4655.7285      0.93740950
       4657.6761      0.94082800
       4659.6237      0.93314490
       4661.5714      0.93292450
       4663.5190      0.92656360
       4665.4667      0.94299480
       4667.4143      0.93304170
       4669.3619      0.91598570
       4671.3096      0.92194740
       4673.2572      0.92902910
       4675.2049      0.94124700
       4677.1525      0.94392800
       4679.1001      0.92258160
       4681.0478      0.91562460
       4682.9954      0.93276150
       4684.9431      0.93063190
       4686.8907      0.91569620
       4688.8383      0.92662670
       4690.7860      0.90514440
       4692.7336      0.88147930
       4694.6813      0.88869750
       4696.6289      0.88480480
       4698.5765      0.89130090
       4700.5242      0.87229940
       4702.4718      0.84538910
       4704.4195      0.84575710
       4706.3671      0.86032760
       4708.3147      0.85555600
       4710.2624      0.85269440
       4712.2100      0.85733440
       4714.1576      0.86019270
       4716.1053      0.86109670
       4718.0529      0.84479680
       4720.0006      0.85398040
       4721.9482      0.85761030
       4723.8958      0.85609570
       4725.8435      0.84767800
       4727.7911      0.83815120
       4729.7388      0.83902850
       4731.6864      0.83687140
       4733.6340      0.83581040
       4735.5817      0.83620830
       4737.5293      0.83027670
       4739.4770      0.83239280
       4741.4246      0.82163450
       4743.3722      0.83678040
       4745.3199      0.82582740
       4747.2675      0.82440580
       4749.2152      0.83196410
       4751.1628      0.84191660
       4753.1104      0.86428340
       4755.0581      0.83762210
       4757.0057      0.84155250
       4758.9534      0.88404470
       4760.9010      0.88802070
       4762.8486      0.86868930
       4764.7963      0.86945590
       4766.7439      0.84459800
       4768.6916      0.85902550
       4770.6392      0.87497630
       4772.5868      0.86338080
       4774.5345      0.86935730
       4776.4821      0.85837780
       4778.4297      0.85710780
       4780.3774      0.84927870
       4782.3250      0.84650640
       4784.2727      0.85645830
       4786.2203      0.84950460
       4788.1679      0.84435760
       4790.1156      0.82258620
       4792.0632      0.81840090
       4794.0109      0.82474390
       4795.9585      0.82452430
       4797.9061      0.81619700
       4799.8538      0.79239250
       4801.8014      0.81373790
       4803.7491      0.81673970
       4805.6967      0.80998850
       4807.6443      0.80426820
       4809.5920      0.81779570
       4811.5396      0.82450640
       4813.4873      0.82125520
       4815.4349      0.82123480
       4817.3825      0.82216600
       4819.3302      0.82469620
       4821.2778      0.81897740
       4823.2255      0.82063370
       4825.1731      0.82367030
       4827.1207      0.80827010
       4829.0684      0.78849920
       4831.0160      0.77770120
       4832.9636      0.80199310
       4834.9113      0.81234390
       4836.8589      0.80362260
       4838.8066      0.80608080
       4840.7542      0.82275800
       4842.7018      0.80716400
       4844.6495      0.80479590
       4846.5971      0.81374060
       4848.5448      0.78945380
       4850.4924      0.78893180
       4852.4400      0.81208630
       4854.3877      0.82283810
       4856.3353      0.81500680
       4858.2830      0.84063270
       4860.2306      0.82076440
       4862.1782      0.83550000
       4864.1259      0.83368410
       4866.0735      0.81159560
       4868.0212      0.82293420
       4869.9688      0.82594740
       4871.9164      0.83904550
       4873.8641      0.86481160
       4875.8117      0.85662410
       4877.7594      0.88266720
       4879.7070      0.88635340
       4881.6546      0.89130650
       4883.6023      0.90346180
       4885.5499      0.87585870
       4887.4976      0.85036780
       4889.4452      0.85671790
       4891.3928      0.86601470
       4893.3405      0.88297600
       4895.2881      0.85774640
       4897.2357      0.86440490
       4899.1834      0.86370530
       4901.1310      0.86006800
       4903.0787      0.87078340
       4905.0263      0.86843390
       4906.9739      0.83828810
       4908.9216      0.86208080
       4910.8692      0.88445140
       4912.8169      0.86806690
       4914.7645      0.85239720
       4916.7121      0.84041350
       4918.6598      0.83678130
       4920.6074      0.85917920
       4922.5551      0.85424270
       4924.5027      0.85127280
       4926.4503      0.82288250
       4928.3980      0.81587020
       4930.3456      0.81909040
       4932.2933      0.80100120
       4934.2409      0.78188790
       4936.1885      0.77681600
       4938.1362      0.75901760
       4940.0838      0.77052600
       4942.0315      0.76070100
       4943.9791      0.75201410
       4945.9267      0.77333020
       4947.8744      0.75139560
       4949.8220      0.75548120
       4951.7697      0.75026470
       4953.7173      0.74048180
       4955.6649      0.74100250
       4957.6126      0.74425710
       4959.5602      0.72947430
       4961.5078      0.80028270
       4963.4555      0.95204610
       4965.4031      0.97615390
       4967.3508      0.93177710
       4969.2984      0.82700780
       4971.2460      0.78791090
       4973.1937      0.80569590
       4975.1413      0.80626730
       4977.0890      0.80750660
       4979.0366      0.81376560
       4980.9842      0.83934720
       4982.9319      0.85782610
       4984.8795      0.84969930
       4986.8272      0.85626480
       4988.7748      0.83215540
       4990.7224      0.83316780
       4992.6701      0.85924590
       4994.6177      0.84676330
       4996.5654      0.84046950
       4998.5130      0.85596310
       5000.4606      0.86561310
       5002.4083      0.84777430
       5004.3559      0.85004810
       5006.3036      0.85894100
       5008.2512      0.85413730
       5010.1988      0.88566190
       5012.1465      0.88754430
       5014.0941      0.88806250
       5016.0418      0.87381140
       5017.9894      0.88833130
       5019.9370      0.89756080
       5021.8847      0.88432330
       5023.8323      0.90526830
       5025.7799      0.90200090
       5027.7276      0.94611630
       5029.6752      0.94203780
       5031.6229      0.92364420
       5033.5705      0.90015530
       5035.5181      0.87388640
       5037.4658      0.86545040
       5039.4134      0.88149890
       5041.3611      0.88560290
       5043.3087      0.88805610
       5045.2563      0.87484450
       5047.2040      0.86595150
       5049.1516      0.87494560
       5051.0993      0.86860920
       5053.0469      0.88344580
       5054.9945      0.88411310
       5056.9422      0.86878560
       5058.8898      0.86142510
       5060.8375      0.88841170
       5062.7851      0.89339760
       5064.7327      0.87583370
       5066.6804      0.85817670
       5068.6280      0.88004980
       5070.5757      0.88897550
       5072.5233      0.85963020
       5074.4709      0.85486870
       5076.4186      0.88812100
       5078.3662      0.88486550
       5080.3139      0.86137650
       5082.2615      0.86205830
       5084.2091      0.85611070
       5086.1568      0.86202080
       5088.1044      0.85925910
       5090.0520      0.85896170
       5091.9997      0.87193050
       5093.9473      0.87201170
       5095.8950      0.84994740
       5097.8426      0.84781570
       5099.7902      0.85464520
       5101.7379      0.85283840
       5103.6855      0.84198990
       5105.6332      0.86029700
       5107.5808      0.85735760
       5109.5284      0.84132470
       5111.4761      0.84944650
       5113.4237      0.84109470
       5115.3714      0.84726420
       5117.3190      0.84918290
       5119.2666      0.82153490
       5121.2143      0.83061320
       5123.1619      0.84634640
       5125.1096      0.84211230
       5127.0572      0.84159610
       5129.0048      0.83699410
       5130.9525      0.85175860
       5132.9001      0.83840360
       5134.8478      0.84305900
       5136.7954      0.84237240
       5138.7430      0.84731160
       5140.6907      0.83306440
       5142.6383      0.82305450
       5144.5860      0.83657700
       5146.5336      0.82744190
       5148.4812      0.82406660
       5150.4289      0.83174160
       5152.3765      0.82458270
       5154.3241      0.82275660
       5156.2718      0.83509600
       5158.2194      0.81522480
       5160.1671      0.82152760
       5162.1147      0.83402770
       5164.0623      0.83276220
       5166.0100      0.84078030
       5167.9576      0.83573230
       5169.9053      0.83037440
       5171.8529      0.82077080
       5173.8005      0.84627280
       5175.7482      0.83369490
       5177.6958      0.82338780
       5179.6435      0.82877010
       5181.5911      0.82931180
       5183.5387      0.82958890
       5185.4864      0.81147930
       5187.4340      0.81268380
       5189.3817      0.81100890
       5191.3293      0.81125330
       5193.2769      0.81363180
       5195.2246      0.78633380
       5197.1722      0.81233790
       5199.1199      0.82686060
       5201.0675      0.81091300
       5203.0151      0.81958140
       5204.9628      0.81247860
       5206.9104      0.79029450
       5208.8580      0.80314680
       5210.8057      0.80300680
       5212.7533      0.79856790
       5214.7010      0.80830650
       5216.6486      0.77955680
       5218.5962      0.77277210
       5220.5439      0.78844860
       5222.4915      0.77998050
       5224.4392      0.75553350
       5226.3868      0.75506980
       5228.3344      0.76816720
       5230.2821      0.78160840
       5232.2297      0.75810230
       5234.1774      0.75936280
       5236.1250      0.75518180
       5238.0726      0.74927090
       5240.0203      0.73935170
       5241.9679      0.74181550
       5243.9156      0.73896200
       5245.8632      0.73716690
       5247.8108      0.73052610
       5249.7585      0.73357830
       5251.7061      0.74067160
       5253.6538      0.75233580
       5255.6014      0.72196840
       5257.5490      0.73454950
       5259.4967      0.75800770
       5261.4443      0.74260950
       5263.3920      0.71554230
       5265.3396      0.71895800
       5267.2872      0.73096030
       5269.2349      0.73295790
       5271.1825      0.75229670
       5273.1301      0.73024490
       5275.0778      0.71870960
       5277.0254      0.72108040
       5278.9731      0.72087720
       5280.9207      0.73964710
       5282.8683      0.71355260
       5284.8160      0.71718210
       5286.7636      0.74100910
       5288.7113      0.72250300
       5290.6589      0.72351820
       5292.6065      0.72037400
       5294.5542      0.71070230
       5296.5018      0.69883450
       5298.4495      0.72542230
       5300.3971      0.71467900
       5302.3447      0.71539960
       5304.2924      0.72303340
       5306.2400      0.72947190
       5308.1877      0.69011780
       5310.1353      0.71760300
       5312.0829      0.72208820
       5314.0306      0.71510570
       5315.9782      0.71133870
       5317.9259      0.71251950
       5319.8735      0.70749590
       5321.8211      0.72184790
       5323.7688      0.71466620
       5325.7164      0.70482860
       5327.6641      0.69511570
       5329.6117      0.70503980
       5331.5593      0.71209730
       5333.5070      0.69270440
       5335.4546      0.67701270
       5337.4022      0.69158070
       5339.3499      0.70051760
       5341.2975      0.68968700
       5343.2452      0.69742920
       5345.1928      0.68175010
       5347.1404      0.68148140
       5349.0881      0.68429640
       5351.0357      0.70364040
       5352.9834      0.71366750
       5354.9310      0.69338360
       5356.8786      0.69564240
       5358.8263      0.69441610
       5360.7739      0.70041340
       5362.7216      0.69248260
       5364.6692      0.69392710
       5366.6168      0.69017220
       5368.5645      0.68683470
       5370.5121      0.68988810
       5372.4598      0.69951410
       5374.4074      0.67385000
       5376.3550      0.66674380
       5378.3027      0.68020660
       5380.2503      0.67776620
       5382.1980      0.66699470
       5384.1456      0.67986970
       5386.0932      0.68009330
       5388.0409      0.67319170
       5389.9885      0.65778020
       5391.9362      0.65587670
       5393.8838      0.65552460
       5395.8314      0.66789320
       5397.7791      0.67578490
       5399.7267      0.66767340
       5401.6743      0.66338290
       5403.6220      0.66423320
       5405.5696      0.68360850
       5407.5173      0.66350500
       5409.4649      0.66494310
       5411.4125      0.64935390
       5413.3602      0.64757900
       5415.3078      0.64614330
       5417.2555      0.63696710
       5419.2031      0.63290390
       5421.1507      0.63439520
       5423.0984      0.64264720
       5425.0460      0.63872340
       5426.9937      0.64157050
       5428.9413      0.63448180
       5430.8889      0.61887140
       5432.8366      0.61708330
       5434.7842      0.60677070
       5436.7319      0.60692280
       5438.6795      0.60072420
       5440.6271      0.61422660
       5442.5748      0.60172700
       5444.5224      0.59121650
       5446.4701      0.61241160
       5448.4177      0.61729060
       5450.3653      0.61688950
       5452.3130      0.61146730
       5454.2606      0.60653340
       5456.2083      0.61255460
       5458.1559      0.61025570
       5460.1035      0.59579080
       5462.0512      0.60196050
       5463.9988      0.62208030
       5465.9464      0.61318040
       5467.8941      0.62632050
       5469.8417      0.61856120
       5471.7894      0.61053640
       5473.7370      0.62429620
       5475.6846      0.61367670
       5477.6323      0.60651820
       5479.5799      0.60049740
       5481.5276      0.61772270
       5483.4752      0.63271590
       5485.4228      0.61111920
       5487.3705      0.62215980
       5489.3181      0.62535840
       5491.2658      0.60079300
       5493.2134      0.60874740
       5495.1610      0.62497960
       5497.1087      0.61496410
       5499.0563      0.62076420
       5501.0040      0.63208260
       5502.9516      0.63230690
       5504.8992      0.61180820
       5506.8469      0.61000450
       5508.7945      0.62087250
       5510.7422      0.62039320
       5512.6898      0.61908890
       5514.6374      0.60896460
       5516.5851      0.61004140
       5518.5327      0.60610690
       5520.4804      0.60894010
       5522.4280      0.61241180
       5524.3756      0.60745440
       5526.3233      0.60697400
       5528.2709      0.59982490
       5530.2185      0.60164740
       5532.1662      0.61235780
       5534.1138      0.61654630
       5536.0615      0.61387380
       5538.0091      0.59964080
       5539.9567      0.59737220
       5541.9044      0.60886900
       5543.8520      0.60551970
       5545.7997      0.61238870
       5547.7473      0.62207890
       5549.6949      0.64269090
       5551.6426      0.63252590
       5553.5902      0.62624470
       5555.5379      0.62945050
       5557.4855      0.61570580
       5559.4331      0.62132950
       5561.3808      0.63923360
       5563.3284      0.63172050
       5565.2761      0.62205820
       5567.2237      0.63678100
       5569.1713      0.62868700
       5571.1190      0.63063110
       5573.0666      0.64343830
       5575.0143      0.63650060
       5576.9619      0.60723430
       5578.9095      0.61436850
       5580.8572      0.62126290
       5582.8048      0.60488150
       5584.7524      0.60837810
       5586.7001      0.61905330
       5588.6477      0.64053540
       5590.5954      0.64295450
       5592.5430      0.61504110
       5594.4906      0.60563980
       5596.4383      0.60787860
       5598.3859      0.60836690
       5600.3336      0.62715520
       5602.2812      0.62237540
       5604.2288      0.59585490
       5606.1765      0.59376810
       5608.1241      0.60446210
       5610.0718      0.61728660
       5612.0194      0.59717150
       5613.9670      0.58872320
       5615.9147      0.60905350
       5617.8623      0.62633030
       5619.8100      0.59054790
       5621.7576      0.59063590
       5623.7052      0.59056460
       5625.6529      0.57199400
       5627.6005      0.60302510
       5629.5482      0.58857760
       5631.4958      0.57340110
       5633.4434      0.58315080
       5635.3911      0.57895220
       5637.3387      0.55743420
       5639.2864      0.56076720
       5641.2340      0.54738800
       5643.1816      0.53562500
       5645.1293      0.54652840
       5647.0769      0.55835540
       5649.0245      0.55046030
       5650.9722      0.53709930
       5652.9198      0.55401200
       5654.8675      0.54527560
       5656.8151      0.57172650
       5658.7627      0.57333590
       5660.7104      0.56781350
       5662.6580      0.57570980
       5664.6057      0.56515410
       5666.5533      0.56275920
       5668.5009      0.59029540
       5670.4486      0.56839940
       5672.3962      0.57932580
       5674.3439      0.60163730
       5676.2915      0.60006270
       5678.2391      0.61554690
       5680.1868      0.63464180
       5682.1344      0.62899990
       5684.0821      0.62693450
       5686.0297      0.63286570
       5687.9773      0.63116820
       5689.9250      0.63670480
       5691.8726      0.65473250
       5693.8203      0.66250640
       5695.7679      0.65523340
       5697.7155      0.64922690
       5699.6632      0.65015810
       5701.6108      0.65494080
       5703.5585      0.65804770
       5705.5061      0.66270530
       5707.4537      0.67505200
       5709.4014      0.67509240
       5711.3490      0.66976370
       5713.2966      0.66729600
       5715.2443      0.66193880
       5717.1919      0.66184330
       5719.1396      0.67558000
       5721.0872      0.67254470
       5723.0348      0.66745280
       5724.9825      0.68039340
       5726.9301      0.67589240
       5728.8778      0.66218030
       5730.8254      0.67607390
       5732.7730      0.67031020
       5734.7207      0.69547470
       5736.6683      0.67861140
       5738.6160      0.67111050
       5740.5636      0.66641330
       5742.5112      0.66998240
       5744.4589      0.65927170
       5746.4065      0.66515360
       5748.3542      0.66322100
       5750.3018      0.66459470
       5752.2494      0.67017680
       5754.1971      0.65477170
       5756.1447      0.66827750
       5758.0924      0.66049200
       5760.0400      0.67216950
       5761.9876      0.66901710
       5763.9353      0.66883930
       5765.8829      0.67704460
       5767.8306      0.65638380
       5769.7782      0.63302690
       5771.7258      0.65458020
       5773.6735      0.66461210
       5775.6211      0.66677140
       5777.5687      0.66483320
       5779.5164      0.65912640
       5781.4640      0.64160090
       5783.4117      0.63278500
       5785.3593      0.63200810
       5787.3069      0.62612800
       5789.2546      0.63616530
       5791.2022      0.64620830
       5793.1499      0.63643960
       5795.0975      0.62352360
       5797.0451      0.61457580
       5798.9928      0.63700720
       5800.9404      0.63628220
       5802.8881      0.63319460
       5804.8357      0.63768680
       5806.7833      0.62465320
       5808.7310      0.62133480
       5810.6786      0.63166110
       5812.6263      0.64446970
       5814.5739      0.61872490
       5816.5215      0.61598650
       5818.4692      0.60472420
       5820.4168      0.63089270
       5822.3645      0.62422450
       5824.3121      0.61292770
       5826.2597      0.61756040
       5828.2074      0.61185270
       5830.1550      0.60371380
       5832.1027      0.59439190
       5834.0503      0.62373010
       5835.9979      0.62896180
       5837.9456      0.60540410
       5839.8932      0.62249670
       5841.8408      0.61079360
       5843.7885      0.61564260
       5845.7361      0.59778890
       5847.6838      0.60970560
       5849.6314      0.58785380
       5851.5790      0.58502290
       5853.5267      0.60176850
       5855.4743      0.62135980
       5857.4220      0.60063590
       5859.3696      0.60511280
       5861.3172      0.59340050
       5863.2649      0.58605740
       5865.2125      0.57858000
       5867.1602      0.56794380
       5869.1078      0.58306920
       5871.0554      0.59272380
       5873.0031      0.58803020
       5874.9507      0.59008160
       5876.8984      0.59067110
       5878.8460      0.58429520
       5880.7936      0.56588170
       5882.7413      0.55307970
       5884.6889      0.56588880
       5886.6366      0.54880610
       5888.5842      0.55973420
       5890.5318      0.55777170
       5892.4795      0.54899900
       5894.4271      0.56157020
       5896.3748      0.55154770
       5898.3224      0.55040060
       5900.2700      0.54721020
       5902.2177      0.57360050
       5904.1653      0.55174290
       5906.1129      0.52761240
       5908.0606      0.54980220
       5910.0082      0.56882770
       5911.9559      0.52513250
       5913.9035      0.54070880
       5915.8511      0.51645660
       5917.7988      0.51515760
       5919.7464      0.52525220
       5921.6941      0.52352200
       5923.6417      0.52864230
       5925.5893      0.53981090
       5927.5370      0.54344370
       5929.4846      0.54365490
       5931.4323      0.52224580
       5933.3799      0.51915990
       5935.3275      0.53620120
       5937.2752      0.53734220
       5939.2228      0.52867760
       5941.1705      0.54498980
       5943.1181      0.53877160
       5945.0657      0.53303060
       5947.0134      0.53758640
       5948.9610      0.54668940
       5950.9087      0.58057630
       5952.8563      0.57006760
       5954.8039      0.55928610
       5956.7516      0.53362660
       5958.6992      0.52430440
       5960.6468      0.55512600
       5962.5945      0.56226420
       5964.5421      0.55883680
       5966.4898      0.56653910
       5968.4374      0.54956560
       5970.3850      0.57238850
       5972.3327      0.56468900
       5974.2803      0.54304650
       5976.2280      0.53584740
       5978.1756      0.54502480
       5980.1232      0.56023940
       5982.0709      0.56051030
       5984.0185      0.56159670
       5985.9662      0.54785630
       5987.9138      0.55179290
       5989.8614      0.55646660
       5991.8091      0.55012990
       5993.7567      0.54879350
       5995.7044      0.54017440
       5997.6520      0.54757200
       5999.5996      0.55760510
       6001.5473      0.55115240
       6003.4949      0.53393280
       6005.4426      0.54273380
       6007.3902      0.53675580
       6009.3378      0.53100840
       6011.2855      0.53986560
       6013.2331      0.51803350
       6015.1808      0.53398940
       6017.1284      0.53540420
       6019.0760      0.53014690
       6021.0237      0.51444390
       6022.9713      0.53053720
       6024.9189      0.52202400
       6026.8666      0.51581980
       6028.8142      0.51031620
       6030.7619      0.52082340
       6032.7095      0.51862140
       6034.6571      0.51414760
       6036.6048      0.53226760
       6038.5524      0.52176880
       6040.5001      0.51615150
       6042.4477      0.51382080
       6044.3953      0.49843980
       6046.3430      0.50568820
       6048.2906      0.50939920
       6050.2383      0.50378390
       6052.1859      0.48870850
       6054.1335      0.48221360
       6056.0812      0.49562290
       6058.0288      0.50834710
       6059.9765      0.49341950
       6061.9241      0.49024660
       6063.8717      0.49978300
       6065.8194      0.47572220
       6067.7670      0.48353100
       6069.7147      0.46647930
       6071.6623      0.47361170
       6073.6099      0.47020180
       6075.5576      0.46889220
       6077.5052      0.45313490
       6079.4529      0.47441210
       6081.4005      0.48087920
       6083.3481      0.46245220
       6085.2958      0.46341820
       6087.2434      0.44488030
       6089.1910      0.45281540
       6091.1387      0.43914460
       6093.0863      0.42988120
       6095.0340      0.44206220
       6096.9816      0.43268030
       6098.9292      0.41448740
       6100.8769      0.42544930
       6102.8245      0.44710640
       6104.7722      0.44335620
       6106.7198      0.40271490
       6108.6674      0.42939110
       6110.6151      0.43483710
       6112.5627      0.42733720
       6114.5104      0.43711980
       6116.4580      0.41479200
       6118.4056      0.42523210
       6120.3533      0.43292430
       6122.3009      0.42277550
       6124.2486      0.42345780
       6126.1962      0.41530140
       6128.1438      0.42461850
       6130.0915      0.43122640
       6132.0391      0.42726740
       6133.9868      0.42181000
       6135.9344      0.43472220
       6137.8820      0.41689840
       6139.8297      0.44025030
       6141.7773      0.42509010
       6143.7250      0.43408080
       6145.6726      0.44716510
       6147.6202      0.45076230
       6149.5679      0.45212010
       6151.5155      0.44219440
       6153.4631      0.42716210
       6155.4108      0.43125140
       6157.3584      0.43985070
       6159.3061      0.44429460
       6161.2537      0.44814520
       6163.2013      0.44397540
       6165.1490      0.47051500
       6167.0966      0.45865430
       6169.0443      0.43629720
       6170.9919      0.45463670
       6172.9395      0.46158220
       6174.8872      0.45740200
       6176.8348      0.44157750
       6178.7825      0.44139360
       6180.7301      0.44687070
       6182.6777      0.46038760
       6184.6254      0.43987150
       6186.5730      0.45843560
       6188.5207      0.46505390
       6190.4683      0.45889160
       6192.4159      0.46112100
       6194.3636      0.46682720
       6196.3112      0.46368160
       6198.2589      0.46363230
       6200.2065      0.48379530
       6202.1541      0.46246830
       6204.1018      0.44591780
       6206.0494      0.43868810
       6207.9971      0.47025010
       6209.9447      0.46249630
       6211.8923      0.46996970
       6213.8400      0.46862990
       6215.7876      0.46871740
       6217.7352      0.45422160
       6219.6829      0.44990300
       6221.6305      0.44606800
       6223.5782      0.44429470
       6225.5258      0.44757130
       6227.4734      0.44564720
       6229.4211      0.45287660
       6231.3687      0.45483580
       6233.3164      0.45490960
       6235.2640      0.44999270
       6237.2116      0.44658880
       6239.1593      0.44161510
       6241.1069      0.44367750
       6243.0546      0.42010200
       6245.0022      0.43454230
       6246.9498      0.42674190
       6248.8975      0.42606800
       6250.8451      0.42933280
       6252.7928      0.41303130
       6254.7404      0.41144750
       6256.6880      0.42015250
       6258.6357      0.39931170
       6260.5833      0.40364170
       6262.5310      0.40181960
       6264.4786      0.38912610
       6266.4262      0.37200990
       6268.3739      0.36118770
       6270.3215      0.36866470
       6272.2692      0.36072850
       6274.2168      0.33892700
       6276.1644      0.32857540
       6278.1121      0.33004060
       6280.0597      0.31903680
       6282.0073      0.30429740
       6283.9550      0.30267360
       6285.9026      0.32477450
       6287.8503      0.29666030
       6289.7979      0.29477040
       6291.7455      0.28420890
       6293.6932      0.27835480
       6295.6408      0.26933160
       6297.5885      0.28909750
       6299.5361      0.28826820
       6301.4837      0.24365780
       6303.4314      0.26549920
       6305.3790      0.30528810
       6307.3267      0.28678050
       6309.2743      0.28469180
       6311.2219      0.29804080
       6313.1696      0.29347050
       6315.1172      0.28156540
       6317.0649      0.29812780
       6319.0125      0.31063400
       6320.9601      0.31222000
       6322.9078      0.30808030
       6324.8554      0.30658210
       6326.8031      0.34709910
       6328.7507      0.33988330
       6330.6983      0.33930530
       6332.6460      0.35008660
       6334.5936      0.34561350
       6336.5412      0.35117310
       6338.4889      0.36993710
       6340.4365      0.37509110
       6342.3842      0.36561300
       6344.3318      0.38175610
       6346.2794      0.41026150
       6348.2271      0.42158480
       6350.1747      0.39998130
       6352.1224      0.41709240
       6354.0700      0.41539430
       6356.0176      0.41009660
       6357.9653      0.41291760
       6359.9129      0.42349400
       6361.8606      0.42426760
       6363.8082      0.42716080
       6365.7558      0.43390810
       6367.7035      0.44346920
       6369.6511      0.45831270
       6371.5988      0.44819040
       6373.5464      0.45001560
       6375.4940      0.47308160
       6377.4417      0.47327860
       6379.3893      0.46182070
       6381.3370      0.43301040
       6383.2846      0.46954010
       6385.2322      0.46836770
       6387.1799      0.45236930
       6389.1275      0.47004890
       6391.0752      0.46923810
       6393.0228      0.47545110
       6394.9704      0.47597060
       6396.9181      0.46296730
       6398.8657      0.45163940
       6400.8133      0.46369290
       6402.7610      0.45107480
       6404.7086      0.45108450
       6406.6563      0.45773140
       6408.6039      0.46043090
       6410.5515      0.46339790
       6412.4992      0.48431660
       6414.4468      0.49611230
       6416.3945      0.45245380
       6418.3421      0.47679160
       6420.2897      0.48723770
       6422.2374      0.46514050
       6424.1850      0.44674430
       6426.1327      0.44779120
       6428.0803      0.46172600
       6430.0279      0.43954990
       6431.9756      0.43779680
       6433.9232      0.44865930
       6435.8709      0.47038880
       6437.8185      0.46444260
       6439.7661      0.46256510
       6441.7138      0.45574740
       6443.6614      0.46467330
       6445.6091      0.44899080
       6447.5567      0.45830680
       6449.5043      0.45163940
       6451.4520      0.46096350
       6453.3996      0.46121060
       6455.3473      0.45114400
       6457.2949      0.44806380
       6459.2425      0.45989360
       6461.1902      0.46192540
       6463.1378      0.47938340
       6465.0854      0.45378420
       6467.0331      0.44685390
       6468.9807      0.45984950
       6470.9284      0.46022280
       6472.8760      0.43288450
       6474.8236      0.44512840
       6476.7713      0.44341220
       6478.7189      0.41801290
       6480.6666      0.45286420
       6482.6142      0.46772320
       6484.5618      0.48198960
       6486.5095      0.47388160
       6488.4571      0.46417830
       6490.4048      0.46053520
       6492.3524      0.45423770
       6494.3000      0.44302720
       6496.2477      0.43315640
       6498.1953      0.44853840
       6500.1430      0.43440830
       6502.0906      0.43250730
       6504.0382      0.43964690
       6505.9859      0.44321150
       6507.9335      0.43665000
       6509.8812      0.45225190
       6511.8288      0.44749010
       6513.7764      0.42728740
       6515.7241      0.43972330
       6517.6717      0.43537030
       6519.6194      0.41217860
       6521.5670      0.40401880
       6523.5146      0.40771620
       6525.4623      0.40831030
       6527.4099      0.39538170
       6529.3575      0.39939440
       6531.3052      0.39706290
       6533.2528      0.40339800
       6535.2005      0.42812180
       6537.1481      0.42247200
       6539.0957      0.41930610
       6541.0434      0.41069990
       6542.9910      0.39871900
       6544.9387      0.40424350
       6546.8863      0.40064120
       6548.8339      0.38513060
       6550.7816      0.38591900
       6552.7292      0.39360790
       6554.6769      0.40394130
       6556.6245      0.38452090
       6558.5721      0.39691120
       6560.5198      0.39306860
       6562.4674      0.38383760
       6564.4151      0.40235860
       6566.3627      0.40238540
       6568.3103      0.40619610
       6570.2580      0.42262600
       6572.2056      0.41616140
       6574.1533      0.42126510
       6576.1009      0.39936770
       6578.0485      0.41395440
       6579.9962      0.40458870
       6581.9438      0.40122810
       6583.8915      0.39549850
       6585.8391      0.40142850
       6587.7867      0.40530980
       6589.7344      0.40978230
       6591.6820      0.43979230
       6593.6296      0.46789050
       6595.5773      0.45637630
       6597.5249      0.42978450
       6599.4726      0.41718510
       6601.4202      0.41417190
       6603.3678      0.40833380
       6605.3155      0.40278910
       6607.2631      0.39747820
       6609.2108      0.40869130
       6611.1584      0.39340050
       6613.1060      0.40255580
       6615.0537      0.41291510
       6617.0013      0.39851760
       6618.9490      0.40795740
       6620.8966      0.39464540
       6622.8442      0.41013360
       6624.7919      0.39670460
       6626.7395      0.40803880
       6628.6872      0.41182670
       6630.6348      0.40465790
       6632.5824      0.38304320
       6634.5301      0.38565330
       6636.4777      0.38789140
       6638.4254      0.38330020
       6640.3730      0.37951810
       6642.3206      0.36998210
       6644.2683      0.36364100
       6646.2159      0.36058570
       6648.1636      0.37627370
       6650.1112      0.37278680
       6652.0588      0.37650030
       6654.0065      0.37604820
       6655.9541      0.37994840
       6657.9017      0.40091440
       6659.8494      0.39154390
       6661.7970      0.39208690
       6663.7447      0.38959800
       6665.6923      0.38106960
       6667.6399      0.37285820
       6669.5876      0.37816500
       6671.5352      0.37409780
       6673.4829      0.37260120
       6675.4305      0.36313060
       6677.3781      0.36487380
       6679.3258      0.36730460
       6681.2734      0.34415800
       6683.2211      0.34562810
       6685.1687      0.37243670
       6687.1163      0.37429530
       6689.0640      0.36458730
       6691.0116      0.36900600
       6692.9593      0.38793950
       6694.9069      0.38418850
       6696.8545      0.37480690
       6698.8022      0.38097860
       6700.7498      0.38114530
       6702.6975      0.37176990
       6704.6451      0.35072950
       6706.5927      0.35032130
       6708.5404      0.34512840
       6710.4880      0.33518160
       6712.4356      0.34236750
       6714.3833      0.33973090
       6716.3309      0.34213690
       6718.2786      0.36635630
       6720.2262      0.35819560
       6722.1738      0.35546330
       6724.1215      0.36067990
       6726.0691      0.35958940
       6728.0168      0.36101200
       6729.9644      0.35644920
       6731.9120      0.35309170
       6733.8597      0.35032130
       6735.8073      0.35829850
       6737.7550      0.37192250
       6739.7026      0.34516610
       6741.6502      0.34545520
       6743.5979      0.34739300
       6745.5455      0.32356770
       6747.4932      0.34155060
       6749.4408      0.33467100
       6751.3884      0.31903330
       6753.3361      0.32860150
       6755.2837      0.32678290
       6757.2314      0.34329220
       6759.1790      0.35541040
       6761.1266      0.34804640
       6763.0743      0.35508590
       6765.0219      0.35303040
       6766.9696      0.33828980
       6768.9172      0.34497630
       6770.8648      0.35118820
       6772.8125      0.33806520
       6774.7601      0.32799490
       6776.7077      0.32471110
       6778.6554      0.32568030
       6780.6030      0.31815990
       6782.5507      0.30921400
       6784.4983      0.30593760
       6786.4459      0.30662400
       6788.3936      0.31446900
       6790.3412      0.31478300
       6792.2889      0.30650500
       6794.2365      0.31200320
       6796.1841      0.31430160
       6798.1318      0.31991170
       6800.0794      0.33259070
       6802.0271      0.32142490
       6803.9747      0.31531230
       6805.9223      0.31396750
       6807.8700      0.32952740
       6809.8176      0.32948530
       6811.7653      0.31432920
       6813.7129      0.31824920
       6815.6605      0.33540530
       6817.6082      0.33469980
       6819.5558      0.31978150
       6821.5035      0.31856540
       6823.4511      0.30110840
       6825.3987      0.28751330
       6827.3464      0.30239120
       6829.2940      0.31423270
       6831.2417      0.31218880
       6833.1893      0.30423900
       6835.1369      0.28854050
       6837.0846      0.29763020
       6839.0322      0.28719980
       6840.9798      0.29531650
       6842.9275      0.29836360
       6844.8751      0.28708380
       6846.8228      0.31003380
       6848.7704      0.30359080
       6850.7180      0.31158500
       6852.6657      0.31336010
       6854.6133      0.30741500
       6856.5610      0.31296060
       6858.5086      0.30636540
       6860.4562      0.32052760
       6862.4039      0.32792920
       6864.3515      0.32013540
       6866.2992      0.28407270
       6868.2468      0.23383350
       6870.1944      0.21904520
       6872.1421      0.21660520
       6874.0897      0.22709040
       6876.0374      0.23843130
       6877.9850      0.25015660
       6879.9326      0.26120750
       6881.8803      0.25295930
       6883.8279      0.26662150
       6885.7756      0.26628190
       6887.7232      0.26209880
       6889.6708      0.24929770
       6891.6185      0.23383990
       6893.5661      0.24654070
       6895.5138      0.26081660
       6897.4614      0.25269450
       6899.4090      0.24793820
       6901.3567      0.25568330
       6903.3043      0.26405630
       6905.2519      0.26161460
       6907.1996      0.24918560
       6909.1472      0.20201560
       6911.0949      0.25658730
       6913.0425      0.27479330
       6914.9901      0.26662580
       6916.9378      0.25425460
       6918.8854      0.26380750
       6920.8331      0.25422790
       6922.7807      0.23886560
       6924.7283      0.25090770
       6926.6760      0.25989410
       6928.6236      0.24151810
       6930.5713      0.25083410
       6932.5189      0.25415930
       6934.4665      0.25770070
       6936.4142      0.25796740
       6938.3618      0.25875950
       6940.3095      0.23576870
       6942.2571      0.24305890
       6944.2047      0.23813290
       6946.1524      0.24568050
       6948.1000      0.25723920
       6950.0477      0.25247360
       6951.9953      0.25768860
       6953.9429      0.25103170
       6955.8906      0.26107560
       6957.8382      0.24087760
       6959.7859      0.24813110
       6961.7335      0.23778840
       6963.6811      0.25025060
       6965.6288      0.24695880
       6967.5764      0.24510960
       6969.5240      0.25602810
       6971.4717      0.25839510
       6973.4193      0.25625720
       6975.3670      0.26053880
       6977.3146      0.26378280
       6979.2622      0.26052700
       6981.2099      0.26244270
       6983.1575      0.26658880
       6985.1052      0.27649450
       6987.0528      0.27915390
       6989.0004      0.26623120
       6990.9481      0.28186800
       6992.8957      0.28422920
       6994.8434      0.29304060
       6996.7910      0.28755470
       6998.7386      0.30225100
       7000.6863      0.29401070
       7002.6339      0.29866730
       7004.5816      0.32071890
       7006.5292      0.32556080
       7008.4768      0.32470970
       7010.4245      0.32698390
       7012.3721      0.32276510
       7014.3198      0.32071920
       7016.2674      0.32275460
       7018.2150      0.32410070
       7020.1627      0.33879880
       7022.1103      0.32685020
       7024.0580      0.35279300
       7026.0056      0.33098140
       7027.9532      0.32649020
       7029.9009      0.33952190
       7031.8485      0.33066810
       7033.7961      0.33343720
       7035.7438      0.35138710
       7037.6914      0.35250720
       7039.6391      0.35876230
       7041.5867      0.34608770
       7043.5343      0.33131780
       7045.4820      0.33055650
       7047.4296      0.32772670
       7049.3773      0.30964060
       7051.3249      0.31687430
       7053.2725      0.30634560
       7055.2202      0.30921330
       7057.1678      0.31191220
       7059.1155      0.31873990
       7061.0631      0.34128960
       7063.0107      0.33423930
       7064.9584      0.31039230
       7066.9060      0.32483450
       7068.8537      0.32809680
       7070.8013      0.33136710
       7072.7489      0.32911940
       7074.6966      0.33867260
       7076.6442      0.34316260
       7078.5919      0.35085540
       7080.5395      0.35200120
       7082.4871      0.33937680
       7084.4348      0.34978210
       7086.3824      0.35806880
       7088.3300      0.35613730
       7090.2777      0.35476200
       7092.2253      0.35965000
       7094.1730      0.35499220
       7096.1206      0.35154100
       7098.0682      0.34272090
       7100.0159      0.32792130
       7101.9635      0.33799500
       7103.9112      0.21102750
       7105.8588      0.26744410
       7107.8064      0.34738050
       7109.7541      0.32599050
       7111.7017      0.32602970
       7113.6494      0.30421220
       7115.5970      0.30337800
       7117.5446      0.31101470
       7119.4923      0.29543460
       7121.4399      0.31642420
       7123.3876      0.32646430
       7125.3352      0.32575750
       7127.2828      0.33843620
       7129.2305      0.34431790
       7131.1781      0.33371920
       7133.1258      0.32902950
       7135.0734      0.33555040
       7137.0210      0.33261940
       7138.9687      0.32954730
       7140.9163      0.34484440
       7142.8640      0.33802890
       7144.8116      0.34052190
       7146.7592      0.36680550
       7148.7069      0.36559060
       7150.6545      0.32621540
       7152.6021      0.30214140
       7154.5498      0.32055810
       7156.4974      0.31787490
       7158.4451      0.30322060
       7160.3927      0.31414280
       7162.3403      0.30769210
       7164.2880      0.28909140
       7166.2356      0.28831970
       7168.1833      0.28508640
       7170.1309      0.27758710
       7172.0785      0.27744360
       7174.0262      0.28175710
       7175.9738      0.27325090
       7177.9215      0.27599210
       7179.8691      0.28984950
       7181.8167      0.28291940
       7183.7644      0.28181060
       7185.7120      0.29021930
       7187.6597      0.28410140
       7189.6073      0.27912660
       7191.5549      0.28265100
       7193.5026      0.25697040
       7195.4502      0.28029860
       7197.3979      0.31564640
       7199.3455      0.27369490
       7201.2931      0.25814810
       7203.2408      0.26681910
       7205.1884      0.27321810
       7207.1361      0.28891550
       7209.0837      0.29923180
       7211.0313      0.29782650
       7212.9790      0.28054820
       7214.9266      0.28489970
       7216.8742      0.29110240
       7218.8219      0.28150490
       7220.7695      0.27736740
       7222.7172      0.27884180
       7224.6648      0.29654800
       7226.6124      0.29752470
       7228.5601      0.29405550
       7230.5077      0.29582410
       7232.4554      0.28451200
       7234.4030      0.27126320
       7236.3506      0.27653190
       7238.2983      0.30084560
       7240.2459      0.30163550
       7242.1936      0.29282630
       7244.1412      0.29444570
       7246.0888      0.27532010
       7248.0365      0.28219950
       7249.9841      0.28304230
       7251.9318      0.28181490
       7253.8794      0.27496440
       7255.8270      0.26281410
       7257.7747      0.25664690
       7259.7223      0.26098330
       7261.6700      0.27339360
       7263.6176      0.24673350
       7265.5652      0.26194230
       7267.5129      0.27200390
       7269.4605      0.29202450
       7271.4082      0.29301950
       7273.3558      0.28002360
       7275.3034      0.24289270
       7277.2511      0.24560850
       7279.1987      0.25949260
       7281.1463      0.30383140
       7283.0940      0.30569460
       7285.0416      0.31280240
       7286.9893      0.27210360
       7288.9369      0.27906880
       7290.8845      0.28008750
       7292.8322      0.28359160
       7294.7798      0.28476860
       7296.7275      0.28559490
       7298.6751      0.27053830
       7300.6227      0.26949350
       7302.5704      0.25585700
       7304.5180      0.27053050
       7306.4657      0.28207250
       7308.4133      0.25802240
       7310.3609      0.26258380
       7312.3086      0.26412800
       7314.2562      0.25972350
       7316.2039      0.25653280
       7318.1515      0.25165970
       7320.0991      0.27510020
       7322.0468      0.26868890
       7323.9944      0.27538260
       7325.9421      0.30043900
       7327.8897      0.29834400
       7329.8373      0.29279440
       7331.7850      0.26603140
       7333.7326      0.27405830
       7335.6803      0.26818880
       7337.6279      0.27563310
       7339.5755      0.29067120
       7341.5232      0.26415900
       7343.4708      0.27995050
       7345.4184      0.24664630
       7347.3661      0.24250900
       7349.3137      0.24488790
       7351.2614      0.26509410
       7353.2090      0.25177360
       7355.1566      0.24876670
       7357.1043      0.24997510
       7359.0519      0.25953030
       7360.9996      0.26174570
       7362.9472      0.25677070
       7364.8948      0.25682220
       7366.8425      0.26874230
       7368.7901      0.27595500
       7370.7378      0.26569930
       7372.6854      0.25964320
       7374.6330      0.25525000
       7376.5807      0.25903310
       7378.5283      0.24833570
       7380.4760      0.25086700
       7382.4236      0.22647380
       7384.3712      0.22311070
       7386.3189      0.24512190
       7388.2665      0.22498460
       7390.2142      0.21978580
       7392.1618      0.23709040
       7394.1094      0.22133210
       7396.0571      0.20835460
       7398.0047      0.20108700
       7399.9524      0.20365370
       7401.9000      0.21325550
       7403.8476      0.21618170
       7405.7953      0.21098790
       7407.7429      0.20888350
       7409.6905      0.21190900
       7411.6382      0.20885390
       7413.5858      0.21368990
       7415.5335      0.20649790
       7417.4811      0.20885300
       7419.4287      0.20355810
       7421.3764      0.17901610
       7423.3240      0.18940210
       7425.2717      0.19824230
       7427.2193      0.18537830
       7429.1669      0.17657110
       7431.1146      0.17911630
       7433.0622      0.17435430
       7435.0099      0.16570410
       7436.9575      0.16297470
       7438.9051      0.15301160
       7440.8528      0.16793350
       7442.8004      0.17354770
       7444.7481      0.16620860
       7446.6957      0.17654630
       7448.6433      0.18031310
       7450.5910      0.17872450
       7452.5386      0.18423170
       7454.4863      0.19144890
       7456.4339      0.19213270
       7458.3815      0.18710280
       7460.3292      0.18158840
       7462.2768      0.18496760
       7464.2244      0.19276900
       7466.1721      0.19629870
       7468.1197      0.18428100
       7470.0674      0.17157790
       7472.0150      0.18586080
       7473.9626      0.18557880
       7475.9103      0.17558890
       7477.8579      0.18842930
       7479.8056      0.18857860
       7481.7532      0.19934190
       7483.7008      0.20355830
       7485.6485      0.18712670
       7487.5961      0.20015230
       7489.5438      0.20979240
       7491.4914      0.23058020
       7493.4390      0.23351840
       7495.3867      0.22143810
       7497.3343      0.23025050
       7499.2820      0.24035460
       7501.2296      0.24351580
       7503.1772      0.25272110
       7505.1249      0.24946600
       7507.0725      0.24916860
       7509.0202      0.25495600
       7510.9678      0.22177940
       7512.9154      0.24405360
       7514.8631      0.24899020
       7516.8107      0.24721680
       7518.7584      0.24345250
       7520.7060      0.25042790
       7522.6536      0.26308770
       7524.6013      0.26343030
       7526.5489      0.23846640
       7528.4965      0.26694820
       7530.4442      0.27056320
       7532.3918      0.23848100
       7534.3395      0.25565370
       7536.2871      0.27389010
       7538.2347      0.28531210
       7540.1824      0.27890600
       7542.1300      0.28433110
       7544.0777      0.28683430
       7546.0253      0.29265460
       7547.9729      0.29970760
       7549.9206      0.28652180
       7551.8682      0.29032840
       7553.8159      0.29430470
       7555.7635      0.28674160
       7557.7111      0.30511750
       7559.6588      0.26934740
       7561.6064      0.27307140
       7563.5541      0.28358000
       7565.5017      0.26675310
       7567.4493      0.25481770
       7569.3970      0.26536800
       7571.3446      0.26340610
       7573.2923      0.24491050
       7575.2399      0.24885790
       7577.1875      0.25057560
       7579.1352      0.26842550
       7581.0828      0.28003750
       7583.0305      0.28043010
       7584.9781      0.27600750
       7586.9257      0.28035090
       7588.8734      0.27937200
       7590.8210      0.26548370
       7592.7686      0.23411700
       7594.7163      0.16876600
       7596.6639      0.12934220
       7598.6116      0.10698780
       7600.5592     0.083473280
       7602.5068     0.068664000
       7604.4545     0.064481610
       7606.4021     0.053587710
       7608.3498     0.070943540
       7610.2974     0.083460340
       7612.2450      0.10972650
       7614.1927      0.13578450
       7616.1403      0.17957900
       7618.0880      0.20916760
       7620.0356      0.21406040
       7621.9832      0.18124120
       7623.9309      0.14274800
       7625.8785      0.11153180
       7627.8262      0.11798960
       7629.7738      0.13773850
       7631.7214      0.14523490
       7633.6691      0.14100660
       7635.6167      0.15583020
       7637.5644      0.15818230
       7639.5120      0.17785660
       7641.4596      0.18200030
       7643.4073      0.18310910
       7645.3549      0.18752280
       7647.3026      0.19873600
       7649.2502      0.21740470
       7651.1978      0.23476630
       7653.1455      0.22835200
       7655.0931      0.22254170
       7657.0407      0.23234990
       7658.9884      0.25764490
       7660.9360      0.24814190
       7662.8837      0.24605350
       7664.8313      0.25070350
       7666.7789      0.25142920
       7668.7266      0.25067460
       7670.6742      0.24238180
       7672.6219      0.24832230
       7674.5695      0.26654910
       7676.5171      0.27115550
       7678.4648      0.27448510
       7680.4124      0.28158730
       7682.3601      0.27768930
       7684.3077      0.29082550
       7686.2553      0.30656230
       7688.2030      0.31257990
       7690.1506      0.30510810
       7692.0983      0.30477760
       7694.0459      0.31972000
       7695.9935      0.29801350
       7697.9412      0.28641770
       7699.8888      0.29524470
       7701.8365      0.29082460
       7703.7841      0.29105010
       7705.7317      0.28903630
       7707.6794      0.27297750
       7709.6270      0.28532060
       7711.5747      0.25471230
       7713.5223      0.23617480
       7715.4699      0.27882490
       7717.4176      0.29662100
       7719.3652      0.29406430
       7721.3128      0.26023720
       7723.2605      0.27156250
       7725.2081      0.28195090
       7727.1558      0.31961870
       7729.1034      0.28249030
       7731.0510      0.27258230
       7732.9987      0.30652040
       7734.9463      0.30729770
       7736.8940      0.31297800
       7738.8416      0.31233740
       7740.7892      0.30235650
       7742.7369      0.29457300
       7744.6845      0.29733430
       7746.6322      0.28990860
       7748.5798      0.28576480
       7750.5274      0.28490300
       7752.4751      0.28001420
       7754.4227      0.26549110
       7756.3704      0.25651850
       7758.3180      0.26920400
       7760.2656      0.27079240
       7762.2133      0.25092940
       7764.1609      0.26098420
       7766.1086      0.27575130
       7768.0562      0.27092150
       7770.0038      0.26489340
       7771.9515      0.27985000
       7773.8991      0.28072910
       7775.8468      0.28891880
       7777.7944      0.25690640
       7779.7420      0.28881040
       7781.6897      0.29656880
       7783.6373      0.27194600
       7785.5849      0.26465610
       7787.5326      0.26054280
       7789.4802      0.26184620
       7791.4279      0.28897050
       7793.3755      0.23603180
       7795.3231      0.25537670
       7797.2708      0.26672040
       7799.2184      0.24322200
       7801.1661      0.25952870
       7803.1137      0.26617370
       7805.0613      0.25194520
       7807.0090      0.25876860
       7808.9566      0.24179110
       7810.9043      0.24300740
       7812.8519      0.26085200
       7814.7995      0.25239550
       7816.7472      0.26474930
       7818.6948      0.29009870
       7820.6425      0.27983570
       7822.5901      0.30530370
       7824.5377      0.27666830
       7826.4854      0.26115420
       7828.4330      0.25086540
       7830.3807      0.27125760
       7832.3283      0.26065530
       7834.2759      0.27184170
       7836.2236      0.26410110
       7838.1712      0.25969990
       7840.1188      0.25510480
       7842.0665      0.25417550
       7844.0141      0.25585890
       7845.9618      0.26461270
       7847.9094      0.26301090
       7849.8570      0.25235470
       7851.8047      0.23415050
       7853.7523      0.22123830
       7855.7000      0.21934800
       7857.6476      0.24625050
       7859.5952      0.25577890
       7861.5429      0.24661310
       7863.4905      0.23898170
       7865.4382      0.26647050
       7867.3858      0.27018160
       7869.3334      0.25727150
       7871.2811      0.28536420
       7873.2287      0.26362890
       7875.1764      0.26002140
       7877.1240      0.26685740
       7879.0716      0.25765730
       7881.0193      0.27038350
       7882.9669      0.26778350
       7884.9146      0.26515600
       7886.8622      0.25231070
       7888.8098      0.24572090
       7890.7575      0.24547100
       7892.7051      0.24901020
       7894.6528      0.24433690
       7896.6004      0.23921020
       7898.5480      0.24886710
       7900.4957      0.23569210
       7902.4433      0.23782000
       7904.3909      0.24967450
       7906.3386      0.22936810
       7908.2862      0.22214850
       7910.2339      0.22943650
       7912.1815      0.22648570
       7914.1291      0.22792640
       7916.0768      0.22857040
       7918.0244      0.24864310
       7919.9721      0.25709370
       7921.9197      0.25073260
       7923.8673      0.25092900
       7925.8150      0.25476480
       7927.7626      0.24576900
       7929.7103      0.25461290
       7931.6579      0.26318220
       7933.6055      0.24138410
       7935.5532      0.25362730
       7937.5008      0.24947440
       7939.4485      0.26233030
       7941.3961      0.24416070
       7943.3437      0.22333780
       7945.2914      0.23802270
       7947.2390      0.26253480
       7949.1867      0.26107030
       7951.1343      0.24361940
       7953.0819      0.23438880
       7955.0296      0.23434730
       7956.9772      0.22833910
       7958.9249      0.22718940
       7960.8725      0.24195820
       7962.8201      0.23876100
       7964.7678      0.22033770
       7966.7154      0.24628400
       7968.6630      0.23379050
       7970.6107      0.21646900
       7972.5583      0.22612220
       7974.5060      0.25166250
       7976.4536      0.25295230
       7978.4012      0.25707850
       7980.3489      0.23334940
       7982.2965      0.24332890
       7984.2442      0.20607500
       7986.1918      0.24175030
       7988.1394      0.24251860
       7990.0871      0.22844590
       7992.0347      0.25147690
       7993.9824      0.25294790
       7995.9300      0.23115440
       7997.8776      0.21325320
       7999.8253      0.20894920
       8001.7729      0.23019280
       8003.7206      0.22501120
       8005.6682      0.23930630
       8007.6158      0.23452350
       8009.5635      0.22274720
       8011.5111      0.20334980
       8013.4588      0.23280220
       8015.4064      0.22923830
       8017.3540      0.20531500
       8019.3017      0.21974210
       8021.2493      0.24430620
       8023.1970      0.24445990
       8025.1446      0.21944810
       8027.0922      0.22079840
       8029.0399      0.22503080
       8030.9875      0.24406340
       8032.9351      0.25148100
       8034.8828      0.22823490
       8036.8304      0.22909170
       8038.7781      0.24441560
       8040.7257      0.23515860
       8042.6733      0.22662620
       8044.6210      0.24497970
       8046.5686      0.24211550
       8048.5163      0.21062010
       8050.4639      0.20704900
       8052.4115      0.19154260
       8054.3592      0.19729550
       8056.3068      0.21731810
       8058.2545      0.22202870
       8060.2021      0.20738320
       8062.1497      0.15845020
       8064.0974      0.17283470
       8066.0450      0.20321270
       8067.9927      0.21553920
       8069.9403      0.20820830
       8071.8879      0.19930910
       8073.8356      0.22258640
       8075.7832      0.21720060
       8077.7309      0.21096110
       8079.6785      0.20517900
       8081.6261      0.20138700
       8083.5738      0.20680050
       8085.5214      0.19992440
       8087.4691      0.22534510
       8089.4167      0.21261860
       8091.3643      0.20990840
       8093.3120      0.21151260
       8095.2596      0.18371380
       8097.2072      0.18411300
       8099.1549      0.19350970
       8101.1025      0.19426950
       8103.0502      0.19070250
       8104.9978      0.18729180
       8106.9454      0.19210510
       8108.8931      0.19765240
       8110.8407      0.20597020
       8112.7884      0.19943760
       8114.7360      0.19454430
       8116.6836      0.18788910
       8118.6313      0.18262070
       8120.5789      0.20353390
       8122.5266      0.21236490
       8124.4742      0.21164810
       8126.4218      0.19614090
       8128.3695      0.19365230
       8130.3171      0.21413620
       8132.2648      0.21295250
       8134.2124      0.20785050
       8136.1600      0.22700390
       8138.1077      0.22772860
       8140.0553      0.18982650
       8142.0030      0.20011740
       8143.9506      0.20013900
       8145.8982      0.21424280
       8147.8459      0.21595730
       8149.7935      0.20023620
       8151.7411      0.20891720
       8153.6888      0.20169290
       8155.6364      0.20407310
       8157.5841      0.20829430
       8159.5317      0.18654860
       8161.4793      0.17107420
       8163.4270      0.17888720
       8165.3746      0.20482970
       8167.3223      0.18697540
       8169.2699      0.19669260
       8171.2175      0.20469600
       8173.1652      0.19410080
       8175.1128      0.21240970
       8177.0605      0.21819100
       8179.0081      0.20628230
       8180.9557      0.21296760
       8182.9034      0.21796330
       8184.8510      0.20445070
       8186.7987      0.19495920
       8188.7463      0.21250180
       8190.6939      0.17828300
       8192.6416      0.21045910
       8194.5892      0.22602270
       8196.5369      0.21585700
       8198.4845      0.19067360
       8200.4321      0.21979750
       8202.3798      0.24770130
       8204.3274      0.23518700
       8206.2751      0.23137520
       8208.2227      0.24715260
       8210.1703      0.22484560
       8212.1180      0.20471710
       8214.0656      0.22635410
       8216.0132      0.23538830
       8217.9609      0.20761430
       8219.9085      0.22269970
       8221.8562      0.22673400
       8223.8038      0.19248940
       8225.7514      0.16096690
       8227.6991      0.19003050
       8229.6467      0.20541100
       8231.5944      0.21088050
       8233.5420      0.23135360
       8235.4896      0.25830090
       8237.4373      0.24015540
       8239.3849      0.23370440
       8241.3326      0.25173480
       8243.2802      0.24586040
       8245.2278      0.23560170
       8247.1755      0.22621780
       8249.1231      0.23009990
       8251.0708      0.24579790
       8253.0184      0.22018960
       8254.9660      0.22138320
       8256.9137      0.21975850
       8258.8613      0.20205240
       8260.8090      0.21344550
       8262.7566      0.24039650
       8264.7042      0.23359970
       8266.6519      0.21439420
       8268.5995      0.24343840
       8270.5472      0.26745610
       8272.4948      0.23955250
       8274.4424      0.23866230
       8276.3901      0.23247000
       8278.3377      0.25974050
       8280.2853      0.23466560
       8282.2330      0.20523280
       8284.1806      0.23343580
       8286.1283      0.23837680
       8288.0759      0.22221170
       8290.0235      0.23727490
       8291.9712      0.24917530
       8293.9188      0.23209620
       8295.8665      0.24182240
       8297.8141      0.25741090
       8299.7617      0.22904890
       8301.7094      0.22869220
       8303.6570      0.23139860
       8305.6047      0.23006800
       8307.5523      0.24618380
       8309.4999      0.22470370
       8311.4476      0.20365520
       8313.3952      0.24590020
       8315.3429      0.25147740
       8317.2905      0.21948210
       8319.2381      0.23688140
       8321.1858      0.23126190
       8323.1334      0.23631640
       8325.0811      0.26546440
       8327.0287      0.26191990
       8328.9763      0.23921050
       8330.9240      0.24946570
       8332.8716      0.24222120
       8334.8193      0.23005600
       8336.7669      0.23421000
       8338.7145      0.25978110
       8340.6622      0.24738420
       8342.6098      0.24549550
       8344.5574      0.25038650
       8346.5051      0.22277940
       8348.4527      0.20959680
       8350.4004      0.25519580
       8352.3480      0.21956500
       8354.2956      0.22707970
       8356.2433      0.21393560
       8358.1909      0.22336920
       8360.1386      0.25705820
       8362.0862      0.24251910
       8364.0338      0.21587940
       8365.9815      0.24771850
       8367.9291      0.24093700
       8369.8768      0.25797340
       8371.8244      0.25043890
       8373.7720      0.22775590
       8375.7197      0.25465700
       8377.6673      0.26712480
       8379.6150      0.23819670
       8381.5626      0.24094260
       8383.5102      0.26054050
       8385.4579      0.26385220
       8387.4055      0.25039250
       8389.3532      0.27850670
       8391.3008      0.27894900
       8393.2484      0.26356360
       8395.1961      0.26392590
       8397.1437      0.24281660
       8399.0914      0.20656310
       8401.0390      0.22016750
       8402.9866      0.23895070
       8404.9343      0.23956850
       8406.8819      0.23612630
       8408.8295      0.22207690
       8410.7772      0.20702480
       8412.7248      0.27261990
       8414.6725      0.29987130
       8416.6201      0.29021720
       8418.5677      0.27095830
       8420.5154      0.24699480
       8422.4630      0.24855460
       8424.4107      0.23466580
       8426.3583      0.22239720
       8428.3059      0.23103110
       8430.2536      0.25161660
       8432.2012      0.25351550
       8434.1489      0.21799000
       8436.0965      0.24905910
       8438.0441      0.24064070
       8439.9918      0.25330880
       8441.9394      0.24218220
       8443.8871      0.24180640
       8445.8347      0.26106080
       8447.7823      0.23139160
       8449.7300      0.22032010
       8451.6776      0.25358350
       8453.6253      0.23826940
       8455.5729      0.24530780
       8457.5205      0.24423780
       8459.4682      0.24509310
       8461.4158      0.24988980
       8463.3635      0.25329080
       8465.3111      0.18181610
       8467.2587      0.15175610
       8469.2064      0.20360410
       8471.1540      0.22481140
       8473.1016      0.24314130
       8475.0493      0.21603120
       8476.9969      0.21346820
       8478.9446      0.23553400
       8480.8922      0.20988350
       8482.8398      0.24241100
       8484.7875      0.23913950
       8486.7351      0.21006720
       8488.6828      0.21940050
       8490.6304      0.21095960
       8492.5780      0.21986410
       8494.5257      0.24272670
       8496.4733      0.23371090
       8498.4210      0.20079740
       8500.3686      0.21320230
       8502.3162      0.23273960
       8504.2639      0.20073150
       8506.2115      0.16828630
       8508.1592      0.18192830
       8510.1068      0.21484520
       8512.0544      0.23940710
       8514.0021      0.19670430
       8515.9497      0.19109700
       8517.8974      0.20518030
       8519.8450      0.19253730
       8521.7926      0.18303720
       8523.7403      0.17961270
       8525.6879      0.18348710
       8527.6355      0.19914820
       8529.5832      0.20922980
       8531.5308      0.22525720
       8533.4785      0.19344440
       8535.4261      0.17136930
       8537.3737      0.17629950
       8539.3214      0.17661350
       8541.2690      0.18308430
       8543.2167      0.18845460
       8545.1643      0.19170910
       8547.1119      0.17036300
       8549.0596      0.14118940
       8551.0072      0.16239040
       8552.9549      0.16582310
       8554.9025      0.18806810
       8556.8501      0.17263360
       8558.7978      0.16046210
       8560.7454      0.17387390
       8562.6931      0.16799580
       8564.6407      0.17463290
       8566.5883      0.16758770
       8568.5360      0.17449780
       8570.4836      0.18286630
       8572.4313      0.15046980
       8574.3789      0.18334210
