Units are: observed wavelength (Ang), observed flux (10^-15 erg/s/cm^2/Ang)
       3473.0000   -0.0070870180
       3474.4700   -0.0066015210
       3475.9400     0.065449100
       3477.4100      0.19707990
       3478.8800     0.066160120
       3480.3500     0.024430220
       3481.8200      0.31205620
       3483.2900      0.12746990
       3484.7600     -0.38168900
       3486.2300     -0.37059680
       3487.7000     -0.14888350
       3489.1700      0.13518360
       3490.6400     0.093975660
       3492.1100    -0.079570880
       3493.5800      0.11562000
       3495.0500      0.16083280
       3496.5200     -0.10085380
       3497.9900    -0.018987330
       3499.4600     0.022624210
       3500.9300    -0.037925030
       3502.4000     -0.17061980
       3503.8700    -0.018763390
       3505.3400      0.12452000
       3506.8100      0.13143650
       3508.2800    -0.061921080
       3509.7500    -0.095578670
       3511.2200      0.36094540
       3512.6900      0.10337720
       3514.1600     -0.33936340
       3515.6300     -0.28480970
       3517.1000     0.014169950
       3518.5700      0.30493320
       3520.0400      0.17872110
       3521.5100      0.17279530
       3522.9800      0.10194530
       3524.4500      0.53863770
       3525.9200       1.0341100
       3527.3900      0.25529550
       3528.8600    -0.014004760
       3530.3300     0.091233500
       3531.8000    -0.049728210
       3533.2700     -0.21632200
       3534.7400     -0.23971110
       3536.2100     -0.18821700
       3537.6800     -0.18812060
       3539.1500      0.17724990
       3540.6200      0.15709660
       3542.0900     0.067748870
       3543.5600     0.045020350
       3545.0300      0.16132380
       3546.5000     -0.10960460
       3547.9700      0.25261890
       3549.4400      0.70369220
       3550.9100      0.10449330
       3552.3800   -0.0082361400
       3553.8500     -0.15733800
       3555.3200     -0.22823170
       3556.7900    -0.027214950
       3558.2600     0.079683560
       3559.7300     0.098451060
       3561.2000    -0.028241000
       3562.6700     0.016314600
       3564.1400     0.088669680
       3565.6100    -0.063441020
       3567.0800     -0.27380670
       3568.5500     0.052650010
       3570.0200      0.23147140
       3571.4900     0.098292160
       3572.9600    -0.014210320
       3574.4300      0.10723630
       3575.9000      0.13056860
       3577.3700     0.024486230
       3578.8400      0.28136840
       3580.3100      0.69165600
       3581.7800      0.42452530
       3583.2500     0.044207190
       3584.7200      0.42707810
       3586.1900      0.29300120
       3587.6600    -0.048110530
       3589.1300     0.057352680
       3590.6000      0.11803800
       3592.0700      0.10452770
       3593.5400      0.13781630
       3595.0100      0.31189440
       3596.4800      0.10965300
       3597.9500      0.20211910
       3599.4200      0.72731940
       3600.8900      0.44618550
       3602.3600     -0.10958850
       3603.8300      0.18274200
       3605.3000    0.0034848930
       3606.7700      0.17033310
       3608.2400      0.21104510
       3609.7100      0.12613540
       3611.1800    -0.043727790
       3612.6500    -0.073633250
       3614.1200      0.37224020
       3615.5900       1.3584930
       3617.0600      0.14014930
       3618.5300     0.019674240
       3620.0000      0.18773190
       3621.4700      0.28339780
       3622.9400      0.30432730
       3624.4100      0.12349960
       3625.8800      0.16506380
       3627.3500      0.11151060
       3628.8200      0.11672690
       3630.2900      0.13231820
       3631.7600      0.24509030
       3633.2300     0.080534950
       3634.7000      0.11523700
       3636.1700     0.066338020
       3637.6400      0.41244330
       3639.1100      0.56717410
       3640.5800     0.017689150
       3642.0500      0.16831190
       3643.5200      0.40913150
       3644.9900      0.52036780
       3646.4600      0.26322160
       3647.9300      0.61964210
       3649.4000      0.25680010
       3650.8700      0.10248120
       3652.3400      0.18760220
       3653.8100     0.092118920
       3655.2800      0.19372190
       3656.7500      0.18110080
       3658.2200      0.10364810
       3659.6900      0.24964940
       3661.1600      0.20104620
       3662.6300      0.14795100
       3664.1000      0.32359740
       3665.5700      0.35463520
       3667.0400      0.43563260
       3668.5100      0.16297600
       3669.9800      0.15587330
       3671.4500      0.68659460
       3672.9200      0.61341370
       3674.3900      0.34716330
       3675.8600      0.31415080
       3677.3300      0.49732750
       3678.8000      0.30960100
       3680.2700      0.40641730
       3681.7400     0.080942270
       3683.2100      0.11117220
       3684.6800     0.074758220
       3686.1500      0.60945920
       3687.6200       1.8316690
       3689.0900      0.39612550
       3690.5600     0.040708030
       3692.0300      0.17510420
       3693.5000      0.25341650
       3694.9700      0.36192800
       3696.4400      0.66485210
       3697.9100      0.37514990
       3699.3800    0.0034355250
       3700.8500    -0.038046130
       3702.3200      0.16173380
       3703.7900    -0.040234540
       3705.2600     0.053901990
       3706.7300      0.22128970
       3708.2000      0.24594860
       3709.6700      0.19280070
       3711.1400     0.081955500
       3712.6100      0.16821450
       3714.0800      0.36795410
       3715.5500      0.18690270
       3717.0200      0.30243810
       3718.4900      0.21023820
       3719.9600      0.21840490
       3721.4300    -0.027369980
       3722.9000      0.15308280
       3724.3700      0.20528960
       3725.8400     0.025918840
       3727.3100      0.27662390
       3728.7800      0.37508260
       3730.2500      0.19798580
       3731.7200      0.14050620
       3733.1900     0.041078090
       3734.6600   -0.0058251980
       3736.1300      0.30147710
       3737.6000      0.39057550
       3739.0700      0.31341850
       3740.5400      0.36348640
       3742.0100      0.63133140
       3743.4800      0.59375070
       3744.9501      0.25451760
       3746.4200      0.20739820
       3747.8900      0.10971860
       3749.3600      0.14222330
       3750.8300      0.17270200
       3752.3000     0.081076260
       3753.7700     0.084176640
       3755.2400      0.21102330
       3756.7100      0.51298200
       3758.1800      0.31269650
       3759.6500      0.11918720
       3761.1200     0.033781450
       3762.5900     0.074818850
       3764.0600      0.58388890
       3765.5300      0.44550260
       3767.0000     0.069059420
       3768.4700      0.34919290
       3769.9400      0.32634400
       3771.4100      0.56452010
       3772.8800      0.30611430
       3774.3500     0.084830490
       3775.8200      0.14358240
       3777.2900      0.24915960
       3778.7600      0.33928210
       3780.2300     0.015753350
       3781.7000      0.13132770
       3783.1700      0.21247580
       3784.6400      0.17659580
       3786.1100     0.077461820
       3787.5800      0.11091880
       3789.0500     0.065024320
       3790.5200     0.018518270
       3791.9900      0.19936630
       3793.4600      0.22984440
       3794.9300      0.22489060
       3796.4000      0.19651850
       3797.8700      0.13680500
       3799.3400     0.081543620
       3800.8100      0.26407360
       3802.2800      0.49988220
       3803.7500      0.29038460
       3805.2200      0.26579560
       3806.6900      0.16062310
       3808.1600      0.21532640
       3809.6300      0.20334650
       3811.1000      0.21182220
       3812.5700     0.067162870
       3814.0400      0.10959880
       3815.5100      0.32374780
       3816.9800     0.096870480
       3818.4500    0.0049803710
       3819.9200      0.15805860
       3821.3900     0.091812420
       3822.8600     0.099427060
       3824.3300     0.084999220
       3825.8000      0.18387170
       3827.2700      0.14117020
       3828.7400      0.16456980
       3830.2100      0.23692570
       3831.6800      0.40076590
       3833.1500      0.36230760
       3834.6200     0.081466060
       3836.0900      0.15394980
       3837.5600     0.060835160
       3839.0300     0.051383770
       3840.5000      0.10159560
       3841.9700     0.052027310
       3843.4400      0.13273200
       3844.9100      0.29312430
       3846.3800      0.16586320
       3847.8500     0.036370810
       3849.3200     0.052509990
       3850.7900      0.16928770
       3852.2600      0.21358150
       3853.7300      0.21402340
       3855.2000      0.34396150
       3856.6700      0.26480340
       3858.1400      0.21414210
       3859.6100      0.19118010
       3861.0800      0.14014030
       3862.5500      0.18271720
       3864.0200      0.28535380
       3865.4900      0.14697220
       3866.9600      0.17624790
       3868.4300      0.31549560
       3869.9000      0.30559650
       3871.3700      0.38289910
       3872.8400      0.41477080
       3874.3100      0.18178130
       3875.7800      0.13394420
       3877.2500      0.22214060
       3878.7200      0.35573880
       3880.1900      0.53469130
       3881.6600      0.30190290
       3883.1300      0.25517670
       3884.6000      0.15662540
       3886.0700      0.22318790
       3887.5400      0.20578540
       3889.0100      0.17897490
       3890.4800      0.25320210
       3891.9500      0.16842610
       3893.4200      0.31231160
       3894.8900      0.24570210
       3896.3600      0.34653510
       3897.8300      0.51813440
       3899.3000      0.25688350
       3900.7700      0.38675300
       3902.2400      0.29025780
       3903.7100      0.41256080
       3905.1800      0.21725020
       3906.6500      0.32863240
       3908.1200      0.37554270
       3909.5900      0.22978440
       3911.0600      0.29865580
       3912.5300      0.28501690
       3914.0000      0.41902310
       3915.4700      0.50747140
       3916.9400      0.41847510
       3918.4100      0.32652240
       3919.8800      0.27853890
       3921.3500      0.37982270
       3922.8200      0.51079030
       3924.2900      0.42865030
       3925.7600      0.49639340
       3927.2300      0.33013220
       3928.7000      0.32324090
       3930.1700      0.37107150
       3931.6400      0.30679910
       3933.1100      0.47657500
       3934.5800      0.43067560
       3936.0500      0.28755440
       3937.5200      0.24181420
       3938.9900      0.28913270
       3940.4600      0.36703880
       3941.9300      0.48487780
       3943.4000      0.49322110
       3944.8700      0.35214180
       3946.3400      0.44399840
       3947.8100      0.49956590
       3949.2800      0.38202750
       3950.7500      0.47933230
       3952.2200      0.45607810
       3953.6900      0.36317400
       3955.1600      0.28302330
       3956.6300      0.35849240
       3958.1000      0.49221760
       3959.5700      0.57638210
       3961.0400      0.58247780
       3962.5100      0.49862130
       3963.9800      0.31485960
       3965.4500      0.30089210
       3966.9200      0.44554120
       3968.3900      0.68637460
       3969.8600      0.40023640
       3971.3300      0.45460340
       3972.8000      0.44090280
       3974.2700      0.38192880
       3975.7400      0.47846250
       3977.2100      0.53804030
       3978.6800      0.42152050
       3980.1500      0.36190860
       3981.6200      0.46336000
       3983.0900      0.37354190
       3984.5600      0.40256490
       3986.0300      0.60532130
       3987.5000      0.63365170
       3988.9700      0.49932950
       3990.4400      0.40889950
       3991.9100      0.40755240
       3993.3800      0.46092930
       3994.8500      0.64506080
       3996.3200      0.39461890
       3997.7900      0.31894800
       3999.2600      0.41773890
       4000.7300      0.47051970
       4002.2000      0.55474080
       4003.6700      0.35559790
       4005.1400      0.48444260
       4006.6100      0.66306260
       4008.0800      0.50457510
       4009.5500      0.47564920
       4011.0200      0.46097790
       4012.4900      0.74517420
       4013.9600      0.73249890
       4015.4300      0.49336020
       4016.9000      0.51415280
       4018.3700      0.59044260
       4019.8400      0.62047580
       4021.3100      0.44801150
       4022.7800      0.42252130
       4024.2500      0.56651470
       4025.7200      0.53209650
       4027.1900      0.46953750
       4028.6600      0.37886820
       4030.1300      0.55070620
       4031.6000      0.41524470
       4033.0700      0.41316580
       4034.5400      0.63045640
       4036.0100      0.42659610
       4037.4800      0.42717480
       4038.9500      0.39650880
       4040.4200      0.45745030
       4041.8900      0.36876600
       4043.3600      0.38543270
       4044.8300      0.31533490
       4046.3000      0.45049130
       4047.7700      0.65205430
       4049.2400      0.75674150
       4050.7100      0.48180540
       4052.1800      0.44829790
       4053.6500      0.52277060
       4055.1200      0.47805910
       4056.5900      0.41757080
       4058.0601      0.54000810
       4059.5300      0.49461300
       4061.0000      0.36617320
       4062.4700      0.42187840
       4063.9400      0.43484770
       4065.4100      0.35741350
       4066.8800      0.38562540
       4068.3500      0.45670490
       4069.8200      0.48109060
       4071.2900      0.53532370
       4072.7600      0.52109060
       4074.2300      0.45831510
       4075.7000      0.44384780
       4077.1700      0.37938140
       4078.6400      0.34949490
       4080.1100      0.38133340
       4081.5800      0.45234560
       4083.0500      0.49626700
       4084.5200      0.48405860
       4085.9900      0.41854120
       4087.4600      0.33192110
       4088.9300      0.39113430
       4090.4000      0.34548800
       4091.8700      0.38481110
       4093.3400      0.41554990
       4094.8100      0.38260730
       4096.2800      0.45811920
       4097.7500      0.49623510
       4099.2200      0.51535310
       4100.6900      0.47688370
       4102.1600      0.41858330
       4103.6300      0.27327190
       4105.1000      0.32934810
       4106.5700      0.42711840
       4108.0400      0.35685200
       4109.5100      0.35527290
       4110.9800      0.29167840
       4112.4500      0.37228760
       4113.9200      0.36534750
       4115.3900      0.29550100
       4116.8600      0.32860880
       4118.3300      0.29904450
       4119.8000      0.36228840
       4121.2700      0.42492710
       4122.7400      0.35059920
       4124.2100      0.37093790
       4125.6800      0.35868520
       4127.1500      0.32310610
       4128.6200      0.35912090
       4130.0900      0.39500130
       4131.5600      0.40656240
       4133.0300      0.27161700
       4134.5000      0.26825560
       4135.9700      0.34837690
       4137.4400      0.36488170
       4138.9100      0.24115920
       4140.3800      0.26187470
       4141.8500      0.37964860
       4143.3200      0.36107510
       4144.7900      0.27870820
       4146.2600      0.24498760
       4147.7300      0.27303540
       4149.2000      0.38672210
       4150.6700      0.42068560
       4152.1400      0.33053640
       4153.6100      0.25614780
       4155.0800      0.18495490
       4156.5500      0.30629170
       4158.0200      0.30891320
       4159.4900      0.29913940
       4160.9600      0.29785880
       4162.4300      0.23149180
       4163.9000      0.24060420
       4165.3700      0.26712280
       4166.8400      0.30889600
       4168.3100      0.27958430
       4169.7800      0.24761750
       4171.2500      0.24966730
       4172.7200      0.34949420
       4174.1900      0.29634260
       4175.6600      0.27862390
       4177.1300      0.21341610
       4178.6000      0.23868000
       4180.0700      0.28313780
       4181.5400      0.29395350
       4183.0100      0.31365790
       4184.4800      0.25825900
       4185.9500      0.23906730
       4187.4200      0.26375760
       4188.8900      0.29333530
       4190.3600      0.21827730
       4191.8300      0.20134510
       4193.3000      0.20363970
       4194.7700      0.24800360
       4196.2400      0.29958040
       4197.7100      0.28788780
       4199.1800      0.27364800
       4200.6500      0.26966420
       4202.1200      0.25485230
       4203.5900      0.20915240
       4205.0600      0.21396430
       4206.5300      0.25369740
       4208.0000      0.24480300
       4209.4700      0.20059140
       4210.9400      0.25840530
       4212.4100      0.25145110
       4213.8800      0.26695730
       4215.3500      0.26820850
       4216.8200      0.23311740
       4218.2900      0.26786750
       4219.7600      0.29365810
       4221.2300      0.26299390
       4222.7000      0.29940150
       4224.1700      0.30802660
       4225.6400      0.30517840
       4227.1100      0.30984800
       4228.5800      0.27604820
       4230.0500      0.29403170
       4231.5200      0.31251840
       4232.9900      0.25358070
       4234.4600      0.25825420
       4235.9300      0.29808940
       4237.4000      0.27293460
       4238.8700      0.28111690
       4240.3400      0.33595490
       4241.8100      0.32175670
       4243.2800      0.25723120
       4244.7500      0.29481460
       4246.2200      0.31455640
       4247.6900      0.29334070
       4249.1600      0.31458110
       4250.6300      0.28069060
       4252.1000      0.29947680
       4253.5700      0.29521410
       4255.0400      0.29422440
       4256.5100      0.32927650
       4257.9800      0.30919780
       4259.4500      0.26136680
       4260.9200      0.26128640
       4262.3900      0.28041720
       4263.8600      0.25440870
       4265.3300      0.31786840
       4266.8000      0.32951270
       4268.2700      0.31134700
       4269.7400      0.33186170
       4271.2100      0.29104920
       4272.6800      0.28764780
       4274.1500      0.28594780
       4275.6200      0.28821300
       4277.0900      0.27888230
       4278.5600      0.30424010
       4280.0300      0.27903260
       4281.5000      0.31199210
       4282.9700      0.38746480
       4284.4400      0.33687930
       4285.9100      0.26281590
       4287.3800      0.30621470
       4288.8500      0.30205660
       4290.3200      0.25895940
       4291.7900      0.26079580
       4293.2600      0.25048450
       4294.7300      0.31206090
       4296.2000      0.32144810
       4297.6700      0.30492590
       4299.1400      0.33242290
       4300.6100      0.31735160
       4302.0800      0.27094100
       4303.5500      0.26191120
       4305.0200      0.30102900
       4306.4900      0.28282010
       4307.9600      0.26892560
       4309.4300      0.30972900
       4310.9000      0.28440470
       4312.3700      0.25074940
       4313.8400      0.34958070
       4315.3100      0.27871180
       4316.7800      0.34394350
       4318.2500      0.37312700
       4319.7200      0.32065710
       4321.1900      0.26787890
       4322.6600      0.24778500
       4324.1300      0.28072420
       4325.6000      0.25576780
       4327.0700      0.30041040
       4328.5400      0.32320990
       4330.0100      0.25274720
       4331.4800      0.25604450
       4332.9500      0.27565330
       4334.4200      0.33833580
       4335.8900      0.32977250
       4337.3600      0.29884500
       4338.8300      0.25702150
       4340.3000      0.33485650
       4341.7700      0.29155040
       4343.2400      0.30003300
       4344.7100      0.32865470
       4346.1800      0.27044540
       4347.6500      0.33151600
       4349.1200      0.29595880
       4350.5900      0.24789280
       4352.0600      0.29210310
       4353.5300      0.28416690
       4355.0000      0.27115210
       4356.4700      0.30303800
       4357.9400      0.32640090
       4359.4100      0.31530150
       4360.8800      0.29834150
       4362.3500      0.30294470
       4363.8200      0.26807790
       4365.2900      0.32877150
       4366.7600      0.34274200
       4368.2300      0.30362450
       4369.7000      0.28902710
       4371.1701      0.30554010
       4372.6400      0.33084320
       4374.1100      0.30079090
       4375.5800      0.35655640
       4377.0500      0.29803250
       4378.5200      0.23760920
       4379.9900      0.31546510
       4381.4600      0.34527880
       4382.9300      0.32835840
       4384.4000      0.32293160
       4385.8700      0.26914530
       4387.3400      0.31320390
       4388.8100      0.30464570
       4390.2800      0.27517290
       4391.7500      0.27855520
       4393.2200      0.28940790
       4394.6900      0.29215590
       4396.1600      0.33701600
       4397.6300      0.30631780
       4399.1000      0.30806400
       4400.5700      0.27421730
       4402.0400      0.33201510
       4403.5100      0.36969660
       4404.9800      0.28823810
       4406.4500      0.24585570
       4407.9200      0.26387050
       4409.3900      0.27137240
       4410.8600      0.26968240
       4412.3300      0.25096020
       4413.8000      0.26865860
       4415.2700      0.31519090
       4416.7400      0.30774480
       4418.2100      0.27246650
       4419.6800      0.33490420
       4421.1500      0.31945460
       4422.6200      0.27090120
       4424.0900      0.29671930
       4425.5600      0.28939810
       4427.0300      0.26455900
       4428.5000      0.24376760
       4429.9700      0.28034200
       4431.4400      0.30125160
       4432.9100      0.28571890
       4434.3800      0.25411910
       4435.8500      0.26871680
       4437.3200      0.27543760
       4438.7900      0.25387750
       4440.2600      0.25430910
       4441.7300      0.23986100
       4443.2000      0.29413720
       4444.6700      0.28623970
       4446.1400      0.25442160
       4447.6100      0.26468990
       4449.0800      0.29914080
       4450.5500      0.31133220
       4452.0200      0.31014850
       4453.4900      0.26908830
       4454.9600      0.27487710
       4456.4300      0.26786730
       4457.9000      0.26073510
       4459.3700      0.32808190
       4460.8400      0.30561000
       4462.3100      0.27427130
       4463.7800      0.29223870
       4465.2500      0.27047600
       4466.7200      0.26156680
       4468.1900      0.31427230
       4469.6600      0.34910450
       4471.1300      0.33225490
       4472.6000      0.28562670
       4474.0700      0.28059070
       4475.5400      0.31482480
       4477.0100      0.33273800
       4478.4800      0.32569460
       4479.9500      0.30620950
       4481.4200      0.27151410
       4482.8900      0.26667960
       4484.3600      0.32534520
       4485.8300      0.30359140
       4487.3000      0.28119600
       4488.7700      0.31537260
       4490.2400      0.31973060
       4491.7100      0.33499120
       4493.1800      0.35171340
       4494.6500      0.32235470
       4496.1200      0.33692470
       4497.5900      0.37741740
       4499.0600      0.43867060
       4500.5300      0.37485710
       4502.0000      0.35691720
       4503.4700      0.40199820
       4504.9400      0.34570010
       4506.4100      0.36411500
       4507.8800      0.42535630
       4509.3500      0.41160130
       4510.8200      0.37925570
       4512.2900      0.39130790
       4513.7600      0.45559570
       4515.2300      0.49164320
       4516.7000      0.42658870
       4518.1700      0.43871710
       4519.6400      0.43524600
       4521.1100      0.42286110
       4522.5800      0.45673210
       4524.0500      0.42825960
       4525.5200      0.46831550
       4526.9900      0.55306880
       4528.4600      0.48529440
       4529.9300      0.47667950
       4531.4000      0.48871390
       4532.8700      0.50303800
       4534.3400      0.49016200
       4535.8100      0.44025400
       4537.2800      0.51018970
       4538.7500      0.57172810
       4540.2200      0.52771190
       4541.6900      0.51968000
       4543.1600      0.53954920
       4544.6300      0.51120410
       4546.1000      0.59886030
       4547.5700      0.55388970
       4549.0400      0.53562500
       4550.5100      0.58948130
       4551.9800      0.56832840
       4553.4500      0.52072490
       4554.9200      0.55248320
       4556.3900      0.61287900
       4557.8600      0.59443100
       4559.3300      0.52722910
       4560.8000      0.60907560
       4562.2700      0.57400350
       4563.7400      0.59245200
       4565.2100      0.61644040
       4566.6800      0.61397050
       4568.1500      0.54481070
       4569.6200      0.56701680
       4571.0900      0.60594860
       4572.5600      0.59282250
       4574.0300      0.62501940
       4575.5000      0.60784140
       4576.9700      0.57276280
       4578.4400      0.58638530
       4579.9100      0.60956500
       4581.3800      0.60973150
       4582.8500      0.65503330
       4584.3200      0.64943530
       4585.7900      0.65007590
       4587.2600      0.64062670
       4588.7300      0.60956910
       4590.2000      0.66599140
       4591.6700      0.70104150
       4593.1400      0.69551590
       4594.6100      0.72491480
       4596.0800      0.66836850
       4597.5500      0.68271200
       4599.0200      0.68431750
       4600.4900      0.63857750
       4601.9600      0.67264310
       4603.4300      0.65100370
       4604.9000      0.67488620
       4606.3700      0.66658910
       4607.8400      0.63043010
       4609.3100      0.66363760
       4610.7800      0.63888390
       4612.2500      0.64365250
       4613.7200      0.68785840
       4615.1900      0.71684190
       4616.6600      0.69385390
       4618.1300      0.62743720
       4619.6000      0.65294240
       4621.0700      0.67985080
       4622.5400      0.66722510
       4624.0100      0.67755570
       4625.4800      0.65167820
       4626.9500      0.66095000
       4628.4200      0.71972320
       4629.8900      0.69974680
       4631.3600      0.65945240
       4632.8300      0.69309220
       4634.3000      0.78223950
       4635.7700      0.76753850
       4637.2400      0.72105160
       4638.7100      0.69895840
       4640.1800      0.66049610
       4641.6500      0.63908740
       4643.1200      0.65664700
       4644.5900      0.68042900
       4646.0600      0.68201430
       4647.5300      0.62740550
       4649.0000      0.63755750
       4650.4700      0.74744760
       4651.9400      0.69520890
       4653.4100      0.62379070
       4654.8800      0.65798360
       4656.3500      0.68312310
       4657.8200      0.65883560
       4659.2900      0.65886340
       4660.7600      0.62360960
       4662.2300      0.62868800
       4663.7000      0.61809430
       4665.1700      0.63150850
       4666.6400      0.60491140
       4668.1100      0.60198180
       4669.5800      0.64130850
       4671.0500      0.61565940
       4672.5200      0.59112670
       4673.9900      0.62688280
       4675.4600      0.67017130
       4676.9300      0.68321570
       4678.4000      0.61185650
       4679.8700      0.62965880
       4681.3400      0.59566410
       4682.8100      0.64139240
       4684.2801      0.62117700
       4685.7500      0.62690450
       4687.2200      0.62002820
       4688.6900      0.58798120
       4690.1600      0.60132700
       4691.6300      0.60070770
       4693.1000      0.57037100
       4694.5700      0.59188040
       4696.0400      0.62813070
       4697.5100      0.59361710
       4698.9800      0.60902540
       4700.4500      0.57383600
       4701.9200      0.51166640
       4703.3900      0.53431740
       4704.8600      0.54686150
       4706.3300      0.53739620
       4707.8000      0.56013870
       4709.2700      0.59994320
       4710.7400      0.53135370
       4712.2100      0.57139270
       4713.6800      0.60391760
       4715.1500      0.55409120
       4716.6200      0.52014210
       4718.0900      0.51475000
       4719.5600      0.54460800
       4721.0300      0.52130250
       4722.5000      0.50075920
       4723.9700      0.51783390
       4725.4400      0.51890070
       4726.9100      0.48738410
       4728.3800      0.49255980
       4729.8500      0.53475430
       4731.3200      0.50316900
       4732.7900      0.53785860
       4734.2600      0.47262980
       4735.7300      0.45246980
       4737.2000      0.48832880
       4738.6700      0.48569840
       4740.1400      0.49163270
       4741.6100      0.49955780
       4743.0800      0.49192110
       4744.5500      0.47265900
       4746.0200      0.48792410
       4747.4900      0.47639210
       4748.9600      0.49054290
       4750.4300      0.49917140
       4751.9000      0.48395780
       4753.3700      0.46916060
       4754.8400      0.45423130
       4756.3100      0.48217630
       4757.7800      0.44835000
       4759.2500      0.47127840
       4760.7200      0.53294680
       4762.1900      0.45681990
       4763.6600      0.44102540
       4765.1300      0.51869430
       4766.6000      0.45577600
       4768.0700      0.41690400
       4769.5400      0.49237530
       4771.0100      0.50569800
       4772.4800      0.47685180
       4773.9500      0.49575350
       4775.4200      0.48251090
       4776.8900      0.41160870
       4778.3600      0.42421720
       4779.8300      0.44676270
       4781.3000      0.46653320
       4782.7700      0.47603000
       4784.2400      0.41418870
       4785.7100      0.41081690
       4787.1800      0.46559670
       4788.6500      0.45775060
       4790.1200      0.42832640
       4791.5900      0.40569570
       4793.0600      0.40949120
       4794.5300      0.39345490
       4796.0000      0.36171500
       4797.4700      0.38253060
       4798.9400      0.42356740
       4800.4100      0.47335150
       4801.8800      0.39631200
       4803.3500      0.35518250
       4804.8200      0.40640410
       4806.2900      0.41826420
       4807.7600      0.39989690
       4809.2300      0.40477940
       4810.7000      0.40967980
       4812.1700      0.39663970
       4813.6400      0.37967400
       4815.1100      0.36435110
       4816.5800      0.33632580
       4818.0500      0.33301230
       4819.5200      0.33307620
       4820.9900      0.31134690
       4822.4600      0.35659270
       4823.9300      0.37270080
       4825.4000      0.34991690
       4826.8700      0.40085320
       4828.3400      0.37327050
       4829.8100      0.33774510
       4831.2800      0.36986690
       4832.7500      0.32798800
       4834.2200      0.36558750
       4835.6900      0.38439050
       4837.1600      0.36292280
       4838.6300      0.35490370
       4840.1000      0.41527370
       4841.5700      0.35869980
       4843.0400      0.40131440
       4844.5100      0.38574230
       4845.9800      0.40386950
       4847.4500      0.40730390
       4848.9200      0.41904360
       4850.3900      0.42343180
       4851.8600      0.39749680
       4853.3300      0.41650220
       4854.8000      0.41411610
       4856.2700      0.39526120
       4857.7400      0.42587100
       4859.2100      0.45278490
       4860.6800      0.44215560
       4862.1500      0.42762830
       4863.6200      0.40151890
       4865.0900      0.45101180
       4866.5600      0.41771600
       4868.0300      0.46549460
       4869.5000      0.45988420
       4870.9700      0.44838350
       4872.4400      0.44952210
       4873.9100      0.45231790
       4875.3800      0.45567420
       4876.8500      0.46873680
       4878.3200      0.44260180
       4879.7900      0.48067770
       4881.2600      0.47634450
       4882.7300      0.47712190
       4884.2000      0.49293810
       4885.6700      0.48211340
       4887.1400      0.45377500
       4888.6100      0.45351380
       4890.0800      0.41214360
       4891.5500      0.40036600
       4893.0200      0.40725820
       4894.4900      0.37980460
       4895.9600      0.41090380
       4897.4300      0.41883950
       4898.9000      0.44009890
       4900.3700      0.45761810
       4901.8400      0.42331270
       4903.3100      0.40220120
       4904.7800      0.43925910
       4906.2500      0.44643340
       4907.7200      0.40840610
       4909.1900      0.38454990
       4910.6600      0.39889660
       4912.1300      0.41497800
       4913.6000      0.37481730
       4915.0700      0.41137470
       4916.5400      0.41042050
       4918.0100      0.35503220
       4919.4800      0.38951760
       4920.9500      0.41184410
       4922.4200      0.40414460
       4923.8900      0.42162160
       4925.3600      0.41242740
       4926.8300      0.40363200
       4928.3000      0.46726270
       4929.7700      0.43640230
       4931.2400      0.46187850
       4932.7100      0.45316450
       4934.1800      0.43744060
       4935.6500      0.43888050
       4937.1200      0.41405010
       4938.5900      0.39196460
       4940.0600      0.45660280
       4941.5300      0.39165040
       4943.0000      0.41894220
       4944.4700      0.46355420
       4945.9400      0.41337120
       4947.4100      0.44043490
       4948.8800      0.47217520
       4950.3500      0.42080790
       4951.8200      0.45446030
       4953.2900      0.51716450
       4954.7600      0.52171000
       4956.2300      0.49535940
       4957.7000      0.52658530
       4959.1700      0.52649090
       4960.6400      0.52488770
       4962.1100      0.49211350
       4963.5800      0.54607400
       4965.0500      0.54544490
       4966.5200      0.56037830
       4967.9900      0.57125060
       4969.4600      0.55976420
       4970.9300      0.55702260
       4972.4000      0.57049960
       4973.8700      0.55997230
       4975.3400      0.59173440
       4976.8100      0.61230650
       4978.2800      0.64065610
       4979.7500      0.60171580
       4981.2200      0.61387830
       4982.6900      0.63628130
       4984.1600      0.67989910
       4985.6300      0.61508520
       4987.1000      0.61151130
       4988.5700      0.60945760
       4990.0400      0.62467230
       4991.5100      0.61050930
       4992.9800      0.61862330
       4994.4500      0.63077650
       4995.9200      0.64880770
       4997.3901      0.65591800
       4998.8600      0.62563720
       5000.3300      0.61482580
       5001.8000      0.59973350
       5003.2700      0.61487850
       5004.7400      0.62147330
       5006.2100      0.55865090
       5007.6800      0.54629810
       5009.1500      0.58930560
       5010.6200      0.58094600
       5012.0900      0.57753380
       5013.5600      0.54469080
       5015.0300      0.49869160
       5016.5000      0.52934830
       5017.9700      0.49974520
       5019.4400      0.48988770
       5020.9100      0.50432670
       5022.3800      0.51193150
       5023.8500      0.50298670
       5025.3200      0.52582660
       5026.7900      0.54277440
       5028.2600      0.52107510
       5029.7300      0.54958070
       5031.2000      0.49912100
       5032.6700      0.47519640
       5034.1400      0.42826980
       5035.6100      0.41436900
       5037.0800      0.40316040
       5038.5500      0.43404160
       5040.0200      0.43076540
       5041.4900      0.41529410
       5042.9600      0.36841610
       5044.4300      0.37206030
       5045.9000      0.41244620
       5047.3700      0.40312220
       5048.8400      0.36391060
       5050.3100      0.37484010
       5051.7800      0.38491710
       5053.2500      0.36932080
       5054.7200      0.34852880
       5056.1900      0.36715260
       5057.6600      0.37503660
       5059.1300      0.34915950
       5060.6000      0.35207250
       5062.0700      0.34215110
       5063.5400      0.33756610
       5065.0100      0.33559680
       5066.4800      0.33041200
       5067.9500      0.33372690
       5069.4200      0.32244170
       5070.8900      0.34912950
       5072.3600      0.37829180
       5073.8300      0.33406690
       5075.3000      0.33809910
       5076.7700      0.38292420
       5078.2400      0.35681720
       5079.7100      0.34951980
       5081.1800      0.33386780
       5082.6500      0.34471400
       5084.1200      0.33416890
       5085.5900      0.33835020
       5087.0600      0.35131330
       5088.5300      0.34712670
       5090.0000      0.33831200
       5091.4700      0.31493720
       5092.9400      0.29993840
       5094.4100      0.34144990
       5095.8800      0.39754190
       5097.3500      0.40115440
       5098.8200      0.37602310
       5100.2900      0.33892540
       5101.7600      0.37924050
       5103.2300      0.38238560
       5104.7000      0.36043980
       5106.1700      0.35727830
       5107.6400      0.36515220
       5109.1100      0.40359360
       5110.5800      0.37836060
       5112.0500      0.35097380
       5113.5200      0.37024230
       5114.9900      0.44929130
       5116.4600      0.42087800
       5117.9300      0.39809320
       5119.4000      0.38380440
       5120.8700      0.40827670
       5122.3400      0.41936400
       5123.8100      0.42123610
       5125.2800      0.40591280
       5126.7500      0.40220620
       5128.2200      0.43254160
       5129.6900      0.43485330
       5131.1600      0.44716360
       5132.6300      0.42315110
       5134.1000      0.45565180
       5135.5700      0.47518950
       5137.0400      0.48196430
       5138.5100      0.44983010
       5139.9800      0.45314310
       5141.4500      0.43403910
       5142.9200      0.43833050
       5144.3900      0.44602020
       5145.8600      0.43472720
       5147.3300      0.47153540
       5148.8000      0.48762040
       5150.2700      0.45761130
       5151.7400      0.50681210
       5153.2100      0.53231520
       5154.6800      0.53101120
       5156.1500      0.52556930
       5157.6200      0.51298210
       5159.0900      0.52061990
       5160.5600      0.53540930
       5162.0300      0.52474100
       5163.5000      0.50118830
       5164.9700      0.49041550
       5166.4400      0.49763030
       5167.9100      0.51733690
       5169.3800      0.55189480
       5170.8500      0.53385160
       5172.3200      0.53952290
       5173.7900      0.54339800
       5175.2600      0.50706450
       5176.7300      0.52799660
       5178.2000      0.53497460
       5179.6700      0.52958290
       5181.1400      0.51122370
       5182.6100      0.53139550
       5184.0800      0.55327160
       5185.5500      0.54960800
       5187.0200      0.53662670
       5188.4900      0.53965520
       5189.9600      0.53895710
       5191.4300      0.51545560
       5192.9000      0.51704560
       5194.3700      0.51456950
       5195.8400      0.52182270
       5197.3100      0.56141400
       5198.7800      0.55326090
       5200.2500      0.54944640
       5201.7200      0.55432950
       5203.1900      0.54144890
       5204.6600      0.54634600
       5206.1300      0.54640210
       5207.6000      0.52674140
       5209.0700      0.51418600
       5210.5400      0.50640420
       5212.0100      0.53316940
       5213.4800      0.53409250
       5214.9500      0.50671480
       5216.4200      0.51331560
       5217.8900      0.53438350
       5219.3600      0.54365920
       5220.8300      0.53857110
       5222.3000      0.55539210
       5223.7700      0.55418970
       5225.2400      0.53247670
       5226.7100      0.52864370
       5228.1800      0.56173600
       5229.6500      0.56059670
       5231.1200      0.54449460
       5232.5900      0.55528900
       5234.0600      0.55733900
       5235.5300      0.57609080
       5237.0000      0.58707380
       5238.4700      0.58964160
       5239.9400      0.58457280
       5241.4100      0.56776830
       5242.8800      0.57276920
       5244.3500      0.58154750
       5245.8200      0.60403640
       5247.2900      0.61671860
       5248.7600      0.63003750
       5250.2300      0.60340710
       5251.7000      0.59297630
       5253.1700      0.59114100
       5254.6400      0.58770360
       5256.1100      0.58572520
       5257.5800      0.59195490
       5259.0500      0.60858300
       5260.5200      0.62653610
       5261.9900      0.63626740
       5263.4600      0.64947970
       5264.9300      0.62178330
       5266.4000      0.55575890
       5267.8700      0.60479990
       5269.3400      0.62950530
       5270.8100      0.59738430
       5272.2800      0.61415000
       5273.7500      0.62771900
       5275.2200      0.63111070
       5276.6900      0.61922540
       5278.1600      0.63332620
       5279.6300      0.64736210
       5281.1000      0.63714090
       5282.5700      0.68510510
       5284.0400      0.65163850
       5285.5100      0.60790370
       5286.9800      0.64868090
       5288.4500      0.65036740
       5289.9200      0.62290070
       5291.3900      0.63866760
       5292.8600      0.63726370
       5294.3300      0.65324270
       5295.8000      0.67351650
       5297.2700      0.66140190
       5298.7400      0.64575480
       5300.2100      0.68739510
       5301.6800      0.66173680
       5303.1500      0.65317860
       5304.6200      0.69144570
       5306.0900      0.66669540
       5307.5600      0.65699020
       5309.0300      0.68094670
       5310.5001      0.68289110
       5311.9700      0.68808750
       5313.4400      0.69613120
       5314.9100      0.68229280
       5316.3800      0.67341660
       5317.8500      0.67010810
       5319.3200      0.69655780
       5320.7900      0.70522330
       5322.2600      0.68162750
       5323.7300      0.66888230
       5325.2000      0.70864050
       5326.6700      0.69742210
       5328.1400      0.71632610
       5329.6100      0.71401830
       5331.0800      0.68075790
       5332.5500      0.68749490
       5334.0200      0.68155220
       5335.4900      0.67583610
       5336.9600      0.67157010
       5338.4300      0.70339390
       5339.9000      0.70391360
       5341.3700      0.73500910
       5342.8400      0.70091000
       5344.3100      0.69626060
       5345.7800      0.70406620
       5347.2500      0.65646170
       5348.7200      0.67227060
       5350.1900      0.68447070
       5351.6600      0.63828430
       5353.1300      0.70045010
       5354.6000      0.71113010
       5356.0700      0.67189010
       5357.5400      0.69797260
       5359.0100      0.75760780
       5360.4800      0.71209820
       5361.9500      0.72635560
       5363.4200      0.75770280
       5364.8900      0.74572150
       5366.3600      0.75594880
       5367.8300      0.70615940
       5369.3000      0.77129460
       5370.7700      0.72406360
       5372.2400      0.67905680
       5373.7100      0.73878090
       5375.1800      0.71136520
       5376.6500      0.70919730
       5378.1200      0.71326020
       5379.5900      0.72045480
       5381.0600      0.70531700
       5382.5300      0.74875360
       5384.0000      0.75950020
       5385.4700      0.71032170
       5386.9400      0.71230850
       5388.4100      0.72603360
       5389.8800      0.73956540
       5391.3500      0.75707660
       5392.8200      0.73888400
       5394.2900      0.73077830
       5395.7600      0.73830700
       5397.2300      0.70867320
       5398.7000      0.69789850
       5400.1700      0.70857480
       5401.6400      0.70268790
       5403.1100      0.69206300
       5404.5800      0.71337530
       5406.0500      0.71589140
       5407.5200      0.69295880
       5408.9900      0.71700910
       5410.4600      0.70183380
       5411.9300      0.67513200
       5413.4000      0.71798820
       5414.8700      0.65875260
       5416.3400      0.66131400
       5417.8100      0.66937600
       5419.2800      0.62970810
       5420.7500      0.64406580
       5422.2200      0.63991930
       5423.6900      0.67360690
       5425.1600      0.66328250
       5426.6300      0.62908380
       5428.1000      0.61395010
       5429.5700      0.59612490
       5431.0400      0.62022730
       5432.5100      0.59252610
       5433.9800      0.61128850
       5435.4500      0.62069270
       5436.9200      0.60192410
       5438.3900      0.60581320
       5439.8600      0.56292270
       5441.3300      0.59819480
       5442.8000      0.58794110
       5444.2700      0.53739820
       5445.7400      0.55952990
       5447.2100      0.59335160
       5448.6800      0.58333350
       5450.1500      0.58346520
       5451.6200      0.54690020
       5453.0900      0.55609420
       5454.5600      0.57159550
       5456.0300      0.56985970
       5457.5000      0.58305740
       5458.9700      0.58579510
       5460.4400      0.55929170
       5461.9100      0.52000270
       5463.3800      0.58657430
       5464.8500      0.58064070
       5466.3200      0.54861970
       5467.7900      0.55467840
       5469.2600      0.54988060
       5470.7300      0.52921370
       5472.2000      0.56325510
       5473.6700      0.58617690
       5475.1400      0.61882890
       5476.6100      0.61416650
       5478.0800      0.57672600
       5479.5500      0.62487170
       5481.0200      0.64602450
       5482.4900      0.63590120
       5483.9600      0.66268390
       5485.4300      0.66888800
       5486.9000      0.66338400
       5488.3700      0.65667180
       5489.8400      0.68923370
       5491.3100      0.71054380
       5492.7800      0.75255940
       5494.2500      0.74260650
       5495.7200      0.72959290
       5497.1900      0.73209210
       5498.6600      0.75525860
       5500.1300      0.79038360
       5501.6000      0.79958890
       5503.0700      0.82633660
       5504.5400      0.81634100
       5506.0100      0.81680230
       5507.4800      0.83892220
       5508.9500      0.84767070
       5510.4200      0.86258880
       5511.8900      0.89898610
       5513.3600      0.90597120
       5514.8300      0.92701190
       5516.3000      0.96315260
       5517.7700      0.97920910
       5519.2400      0.95027110
       5520.7100      0.92802400
       5522.1800      0.98844030
       5523.6500      0.99313500
       5525.1200       1.0146730
       5526.5900       1.0016660
       5528.0600      0.98374530
       5529.5300       1.0601480
       5531.0000       1.0246420
       5532.4700      0.98806590
       5533.9400       1.0233370
       5535.4100       1.0292810
       5536.8800       1.0119670
       5538.3500       1.0088690
       5539.8200       1.0176910
       5541.2900      0.99774300
       5542.7600       1.0387820
       5544.2300       1.0756850
       5545.7000       1.0326830
       5547.1700       1.0125710
       5548.6400      0.99273150
       5550.1100      0.96112380
       5551.5800      0.96677960
       5553.0500       1.0002860
       5554.5200      0.94081230
       5555.9900      0.92151420
       5557.4600      0.97043640
       5558.9300      0.97458610
       5560.4000      0.89460900
       5561.8700      0.87841680
       5563.3400      0.89352170
       5564.8100      0.89556840
       5566.2800      0.86494660
       5567.7500      0.86552240
       5569.2200      0.86535640
       5570.6900      0.83472680
       5572.1600      0.82600640
       5573.6300      0.81843800
       5575.1000      0.74374580
       5576.5700      0.74150460
       5578.0400      0.79250600
       5579.5100      0.81813320
       5580.9800      0.76487010
       5582.4500      0.70896820
       5583.9200      0.69499960
       5585.3900      0.66295020
       5586.8600      0.67974630
       5588.3300      0.65149590
       5589.8000      0.68939020
       5591.2700      0.66589600
       5592.7400      0.61957760
       5594.2100      0.63080870
       5595.6800      0.63492640
       5597.1500      0.60355040
       5598.6200      0.61487860
       5600.0900      0.61588040
       5601.5600      0.60099450
       5603.0300      0.60614150
       5604.5000      0.63443890
       5605.9700      0.60889560
       5607.4400      0.59392990
       5608.9100      0.60304920
       5610.3800      0.61029680
       5611.8500      0.58682440
       5613.3200      0.61490890
       5614.7900      0.59471600
       5616.2600      0.61202440
       5617.7300      0.67042010
       5619.2000      0.65313800
       5620.6700      0.69289420
       5622.1400      0.65262760
       5623.6099      0.60604710
       5625.0800      0.63527560
       5626.5500      0.64351210
       5628.0200      0.61232640
       5629.4900      0.64214740
       5630.9600      0.62666470
       5632.4300      0.65486850
       5633.9000      0.69505130
       5635.3700      0.66625600
       5636.8400      0.69281800
       5638.3100      0.69073690
       5639.7800      0.67916260
       5641.2500      0.68305410
       5642.7200      0.69157160
       5644.1900      0.70044640
       5645.6600      0.70889810
       5647.1300      0.71794930
       5648.6000      0.66716610
       5650.0700      0.66746070
       5651.5400      0.67896450
       5653.0100      0.66596710
       5654.4800      0.68648250
       5655.9500      0.66751610
       5657.4200      0.65208530
       5658.8900      0.69850730
       5660.3600      0.71556390
       5661.8300      0.66227640
       5663.3000      0.63751350
       5664.7700      0.63043640
       5666.2400      0.62710510
       5667.7100      0.60472360
       5669.1800      0.60771830
       5670.6500      0.57677570
       5672.1200      0.51921490
       5673.5900      0.51389780
       5675.0600      0.50689720
       5676.5300      0.47571430
       5678.0000      0.48917140
       5679.4700      0.48750360
       5680.9400      0.43103990
       5682.4100      0.43983640
       5683.8800      0.43550110
       5685.3500      0.46312430
       5686.8200      0.43577480
       5688.2900      0.42193540
       5689.7600      0.41158330
       5691.2300      0.40108360
       5692.7000      0.40250270
       5694.1700      0.40297550
       5695.6400      0.38029970
       5697.1100      0.37348040
       5698.5800      0.38398030
       5700.0500      0.35329270
       5701.5200      0.37518310
       5702.9900      0.34976540
       5704.4600      0.34555550
       5705.9300      0.38876410
       5707.4000      0.39066520
       5708.8700      0.32598340
       5710.3400      0.31261880
       5711.8100      0.32116590
       5713.2800      0.30979460
       5714.7500      0.32925310
       5716.2200      0.32181830
       5717.6900      0.32604350
       5719.1600      0.32370290
       5720.6300      0.31987390
       5722.1000      0.35940880
       5723.5700      0.34647420
       5725.0400      0.31392020
       5726.5100      0.31297860
       5727.9800      0.31099000
       5729.4500      0.31899430
       5730.9200      0.35596330
       5732.3900      0.34989430
       5733.8600      0.31960050
       5735.3300      0.33450750
       5736.8000      0.33671940
       5738.2700      0.30737120
       5739.7400      0.30260690
       5741.2100      0.30591820
       5742.6800      0.30092340
       5744.1500      0.29397310
       5745.6200      0.32361770
       5747.0900      0.32078900
       5748.5600      0.27659610
       5750.0300      0.27609630
       5751.5000      0.29761630
       5752.9700      0.30640780
       5754.4400      0.31137950
       5755.9100      0.29459000
       5757.3800      0.31042170
       5758.8500      0.32923150
       5760.3200      0.30694820
       5761.7900      0.29897360
       5763.2600      0.27285260
       5764.7300      0.28226350
       5766.2000      0.29587660
       5767.6700      0.30637310
       5769.1400      0.30237720
       5770.6100      0.27414290
       5772.0800      0.28975640
       5773.5500      0.26222630
       5775.0200      0.25379000
       5776.4900      0.26740520
       5777.9600      0.27759440
       5779.4300      0.29551470
       5780.9000      0.28156910
       5782.3700      0.26646350
       5783.8400      0.28748850
       5785.3100      0.29312970
       5786.7800      0.27337750
       5788.2500      0.28050380
       5789.7200      0.25110100
       5791.1900      0.27424210
       5792.6600      0.29964100
       5794.1300      0.26807970
       5795.6000      0.25970740
       5797.0700      0.26039420
       5798.5400      0.29071670
       5800.0100      0.28551620
       5801.4800      0.26110550
       5802.9500      0.27640210
       5804.4200      0.29598850
       5805.8900      0.28860580
       5807.3600      0.29394060
       5808.8300      0.31765140
       5810.3000      0.30997800
       5811.7700      0.31484360
       5813.2400      0.29586670
       5814.7100      0.32139930
       5816.1800      0.35022760
       5817.6500      0.34654830
       5819.1200      0.34109020
       5820.5900      0.37212040
       5822.0600      0.38744860
       5823.5300      0.32800840
       5825.0000      0.36409560
       5826.4700      0.39210080
       5827.9400      0.42323120
       5829.4100      0.40350580
       5830.8800      0.39980730
       5832.3500      0.42919720
       5833.8200      0.39617480
       5835.2900      0.39325140
       5836.7600      0.45576700
       5838.2300      0.49890230
       5839.7000      0.44091520
       5841.1700      0.46199940
       5842.6400      0.50088200
       5844.1100      0.45775810
       5845.5800      0.47166310
       5847.0500      0.47101630
       5848.5200      0.53765670
       5849.9900      0.50626960
       5851.4600      0.50371770
       5852.9300      0.52128860
       5854.4000      0.54977110
       5855.8700      0.56601970
       5857.3400      0.53938830
       5858.8100      0.56335580
       5860.2800      0.57362940
       5861.7500      0.55711210
       5863.2200      0.60184400
       5864.6900      0.60920520
       5866.1600      0.60419670
       5867.6300      0.59531470
       5869.1000      0.62335290
       5870.5700      0.64131550
       5872.0400      0.62027970
       5873.5100      0.62928000
       5874.9800      0.62930330
       5876.4500      0.66067250
       5877.9200      0.68059130
       5879.3900      0.65666980
       5880.8600      0.65228210
       5882.3300      0.64955540
       5883.8000      0.65424730
       5885.2700      0.68886910
       5886.7400      0.65737650
       5888.2100      0.66431030
       5889.6800      0.66748650
       5891.1500      0.67935520
       5892.6200      0.65881500
       5894.0900      0.67052050
       5895.5600      0.69346110
       5897.0300      0.69755020
       5898.5000      0.73830880
       5899.9700      0.69887920
       5901.4400      0.74289640
       5902.9100      0.74782560
       5904.3800      0.71400220
       5905.8500      0.70921970
       5907.3200      0.71553810
       5908.7900      0.75633970
       5910.2600      0.75975120
       5911.7300      0.71812340
       5913.2000      0.70532940
       5914.6700      0.68171760
       5916.1400      0.62756840
       5917.6100      0.65313410
       5919.0800      0.68651000
       5920.5500      0.72222730
       5922.0200      0.71935050
       5923.4900      0.72389080
       5924.9600      0.72856630
       5926.4300      0.74670260
       5927.9000      0.74024550
       5929.3700      0.67596070
       5930.8400      0.68010250
       5932.3100      0.69547590
       5933.7800      0.69761410
       5935.2500      0.73673840
       5936.7199      0.67854790
       5938.1900      0.71722850
       5939.6600      0.71870400
       5941.1300      0.71224220
       5942.6000      0.68878590
       5944.0700      0.68088210
       5945.5400      0.71404900
       5947.0100      0.69536960
       5948.4800      0.73364000
       5949.9500      0.71321100
       5951.4200      0.64917020
       5952.8900      0.64766070
       5954.3600      0.66847060
       5955.8300      0.67206560
       5957.3000      0.67836120
       5958.7700      0.67549440
       5960.2400      0.64005860
       5961.7100      0.64813920
       5963.1800      0.67911460
       5964.6500      0.67132720
       5966.1200      0.66463820
       5967.5900      0.69935350
       5969.0600      0.69688910
       5970.5300      0.66839550
       5972.0000      0.62423600
       5973.4700      0.64304360
       5974.9400      0.68859920
       5976.4100      0.67322530
       5977.8800      0.68586590
       5979.3500      0.64509060
       5980.8200      0.64387180
       5982.2900      0.68429430
       5983.7600      0.65495440
       5985.2300      0.63146500
       5986.7000      0.64508240
       5988.1700      0.67138060
       5989.6400      0.66228880
       5991.1100      0.64393720
       5992.5800      0.64828500
       5994.0500      0.66250820
       5995.5200      0.63332020
       5996.9900      0.64573100
       5998.4600      0.67617880
       5999.9300      0.64194920
       6001.4000      0.61763750
       6002.8700      0.61894720
       6004.3400      0.62713340
       6005.8100      0.64314310
       6007.2800      0.64864140
       6008.7500      0.63756770
       6010.2200      0.62678060
       6011.6900      0.64010770
       6013.1600      0.61506400
       6014.6300      0.58010630
       6016.1000      0.56870230
       6017.5700      0.61623250
       6019.0400      0.60451130
       6020.5100      0.59393880
       6021.9800      0.62623700
       6023.4500      0.57045150
       6024.9200      0.53618620
       6026.3900      0.60180860
       6027.8600      0.56518100
       6029.3300      0.56470950
       6030.8000      0.57771700
       6032.2700      0.54296900
       6033.7400      0.57344370
       6035.2100      0.59630500
       6036.6800      0.58659090
       6038.1500      0.62039660
       6039.6200      0.59948150
       6041.0900      0.58624820
       6042.5600      0.58316070
       6044.0300      0.55906710
       6045.5000      0.51748480
       6046.9700      0.52421770
       6048.4400      0.54440110
       6049.9100      0.55482950
       6051.3800      0.56489080
       6052.8500      0.53884190
       6054.3200      0.53461000
       6055.7900      0.53717310
       6057.2600      0.50821150
       6058.7300      0.53094400
       6060.2000      0.54872540
       6061.6700      0.55293880
       6063.1400      0.50947960
       6064.6100      0.48364790
       6066.0800      0.52779230
       6067.5500      0.53447800
       6069.0200      0.53476300
       6070.4900      0.51652880
       6071.9600      0.48442920
       6073.4300      0.50952050
       6074.9000      0.50951310
       6076.3700      0.48961320
       6077.8400      0.48055840
       6079.3100      0.47539580
       6080.7800      0.54570790
       6082.2500      0.54224500
       6083.7200      0.50980970
       6085.1900      0.50591020
       6086.6600      0.49027440
       6088.1300      0.49322420
       6089.6000      0.46436900
       6091.0700      0.46859940
       6092.5400      0.48433450
       6094.0100      0.50023140
       6095.4800      0.49051740
       6096.9500      0.50713040
       6098.4200      0.48840410
       6099.8900      0.46174450
       6101.3600      0.51747720
       6102.8300      0.51900010
       6104.3000      0.49634980
       6105.7700      0.48020400
       6107.2400      0.50871190
       6108.7100      0.50023880
       6110.1800      0.49669090
       6111.6500      0.52069130
       6113.1200      0.53289320
       6114.5900      0.52746710
       6116.0600      0.52757630
       6117.5300      0.50404050
       6119.0000      0.49534590
       6120.4700      0.49009250
       6121.9400      0.47496770
       6123.4100      0.49911660
       6124.8800      0.53959110
       6126.3500      0.52650740
       6127.8200      0.50057610
       6129.2900      0.47299600
       6130.7600      0.50676070
       6132.2300      0.53112240
       6133.7000      0.53719200
       6135.1700      0.53357570
       6136.6400      0.52081820
       6138.1100      0.53067680
       6139.5800      0.51228800
       6141.0500      0.49982910
       6142.5200      0.52282070
       6143.9900      0.52936870
       6145.4600      0.51914380
       6146.9300      0.52821600
       6148.4000      0.56884470
       6149.8700      0.53814340
       6151.3400      0.48318520
       6152.8100      0.53252770
       6154.2800      0.54371890
       6155.7500      0.50684240
       6157.2200      0.53426420
       6158.6900      0.55608430
       6160.1600      0.52136670
       6161.6300      0.50436620
       6163.1000      0.50596400
       6164.5700      0.47256330
       6166.0400      0.46940650
       6167.5100      0.46732400
       6168.9800      0.47161990
       6170.4500      0.52524330
       6171.9200      0.50632620
       6173.3900      0.50149400
       6174.8600      0.52691630
       6176.3300      0.53112960
       6177.8000      0.60552720
       6179.2700      0.59996930
       6180.7400      0.57070480
       6182.2100      0.60037300
       6183.6800      0.58184420
       6185.1500      0.53746130
       6186.6200      0.51127780
       6188.0900      0.55739700
       6189.5600      0.57404970
       6191.0300      0.61497500
       6192.5000      0.65378880
       6193.9700      0.61260710
       6195.4400      0.60030000
       6196.9100      0.59737470
       6198.3800      0.63122530
       6199.8500      0.65378780
       6201.3200      0.64164900
       6202.7900      0.67852950
       6204.2600      0.68002220
       6205.7300      0.67412180
       6207.2000      0.69430970
       6208.6700      0.71261210
       6210.1400      0.70436570
       6211.6100      0.72914910
       6213.0800      0.72039290
       6214.5500      0.74122100
       6216.0200      0.80941810
       6217.4900      0.78714280
       6218.9600      0.76772060
       6220.4300      0.78768020
       6221.9000      0.85843980
       6223.3700      0.85293360
       6224.8400      0.86491160
       6226.3100      0.90055490
       6227.7800      0.94957270
       6229.2500      0.95170840
       6230.7200       1.0253390
       6232.1900       1.0004580
       6233.6600       1.0478440
       6235.1300       1.0910800
       6236.6000       1.1418170
       6238.0700       1.0948000
       6239.5400       1.1151810
       6241.0100       1.0638880
       6242.4800       1.0768490
       6243.9500       1.1235360
       6245.4200       1.1093960
       6246.8900       1.1119030
       6248.3600       1.1181170
       6249.8299       1.1223940
       6251.3000       1.0851900
       6252.7700       1.1224860
       6254.2400       1.1139330
       6255.7100       1.1192740
       6257.1800       1.1397130
       6258.6500       1.1536370
       6260.1200       1.1587300
       6261.5900       1.1427510
       6263.0600       1.1284560
       6264.5300       1.0687990
       6266.0000       1.1093290
       6267.4700       1.1063000
       6268.9400       1.0960290
       6270.4100       1.1189000
       6271.8800       1.1089640
       6273.3500       1.1256720
       6274.8200       1.1147560
       6276.2900       1.1396180
       6277.7600       1.1727680
       6279.2300       1.1514730
       6280.7000       1.1995240
       6282.1700       1.2389710
       6283.6400       1.2052850
       6285.1100       1.1860260
       6286.5800       1.2367040
       6288.0500       1.2378440
       6289.5200       1.1974090
       6290.9900       1.1711840
       6292.4600       1.1770310
       6293.9300       1.2002450
       6295.4000       1.1984960
       6296.8700       1.2368380
       6298.3400       1.2091310
       6299.8100       1.2859320
       6301.2800       1.3705490
       6302.7500       1.3945900
       6304.2200       1.2961020
       6305.6900       1.2450350
       6307.1600       1.1860940
       6308.6300       1.1905430
       6310.1000       1.1713840
       6311.5700       1.1431000
       6313.0400       1.1323230
       6314.5100       1.1597580
       6315.9800       1.1881290
       6317.4500       1.1388920
       6318.9200       1.1631910
       6320.3900       1.1763990
       6321.8600       1.1520170
       6323.3300       1.1717910
       6324.8000       1.1437070
       6326.2700       1.1162950
       6327.7400       1.1081340
       6329.2100       1.1245960
       6330.6800       1.1144590
       6332.1500       1.1070740
       6333.6200       1.0817630
       6335.0900       1.0821990
       6336.5600       1.0862170
       6338.0300       1.1126610
       6339.5000       1.0958010
       6340.9700       1.0754660
       6342.4400       1.0683250
       6343.9100       1.0594830
       6345.3800       1.0949300
       6346.8500       1.0849380
       6348.3200       1.0606110
       6349.7900       1.0535600
       6351.2600       1.0727190
       6352.7300       1.0497990
       6354.2000       1.0110660
       6355.6700       1.0282820
       6357.1400      0.99558830
       6358.6100      0.98131330
       6360.0800       1.0150650
       6361.5500      0.98013560
       6363.0200      0.98099260
       6364.4900      0.99074880
       6365.9600      0.94822840
       6367.4300      0.93272330
       6368.9000      0.96533190
       6370.3700      0.99176530
       6371.8400      0.98843380
       6373.3100      0.96764280
       6374.7800      0.93336110
       6376.2500      0.90420840
       6377.7200      0.90984100
       6379.1900      0.92130140
       6380.6600      0.88200980
       6382.1300      0.87050420
       6383.6000      0.90193090
       6385.0700      0.90523180
       6386.5400      0.88020710
       6388.0100      0.87692900
       6389.4800      0.85548600
       6390.9500      0.85674080
       6392.4200      0.84878700
       6393.8900      0.82428910
       6395.3600      0.84523110
       6396.8300      0.84824870
       6398.3000      0.84330870
       6399.7700      0.82690270
       6401.2400      0.83327610
       6402.7100      0.84054580
       6404.1800      0.85679050
       6405.6500      0.80425930
       6407.1200      0.76624600
       6408.5900      0.80066540
       6410.0600      0.82558870
       6411.5300      0.80836700
       6413.0000      0.81341990
       6414.4700      0.79505840
       6415.9400      0.78497430
       6417.4100      0.79903420
       6418.8800      0.79539970
       6420.3500      0.75979440
       6421.8200      0.75372560
       6423.2900      0.77162400
       6424.7600      0.73604200
       6426.2300      0.77113970
       6427.7000      0.74449240
       6429.1700      0.73409990
       6430.6400      0.74516370
       6432.1100      0.77061980
       6433.5800      0.75010940
       6435.0500      0.77483850
       6436.5200      0.77672150
       6437.9900      0.79328320
       6439.4600      0.80224960
       6440.9300      0.76480130
       6442.4000      0.74909530
       6443.8700      0.76089490
       6445.3400      0.71465380
       6446.8100      0.76461010
       6448.2800      0.79264310
       6449.7500      0.75694720
       6451.2200      0.75474730
       6452.6900      0.77506830
       6454.1600      0.75815350
       6455.6300      0.76429080
       6457.1000      0.76487560
       6458.5700      0.75666950
       6460.0400      0.74919790
       6461.5100      0.75013460
       6462.9800      0.77560230
       6464.4500      0.74845180
       6465.9200      0.74795920
       6467.3900      0.73375070
       6468.8600      0.76453550
       6470.3300      0.75403550
       6471.8000      0.75651450
       6473.2700      0.77962360
       6474.7400      0.75812850
       6476.2100      0.76769000
       6477.6800      0.76376240
       6479.1500      0.78565290
       6480.6200      0.77191750
       6482.0900      0.74346140
       6483.5600      0.72975400
       6485.0300      0.72427370
       6486.5000      0.72310700
       6487.9700      0.71492330
       6489.4400      0.72800090
       6490.9100      0.75161040
       6492.3800      0.74420670
       6493.8500      0.71656460
       6495.3200      0.72242600
       6496.7900      0.71710350
       6498.2600      0.74086340
       6499.7300      0.73515260
       6501.2000      0.71945050
       6502.6700      0.68532040
       6504.1400      0.73926080
       6505.6100      0.75245930
       6507.0800      0.70827880
       6508.5500      0.75970050
       6510.0200      0.74330010
       6511.4900      0.74210830
       6512.9600      0.73158710
       6514.4300      0.71698220
       6515.9000      0.74418680
       6517.3700      0.72372390
       6518.8400      0.71991100
       6520.3100      0.73231320
       6521.7800      0.70853460
       6523.2500      0.69547500
       6524.7200      0.69664420
       6526.1900      0.67868460
       6527.6600      0.68311090
       6529.1300      0.67168140
       6530.6000      0.67361490
       6532.0700      0.68134850
       6533.5400      0.67983250
       6535.0100      0.66423850
       6536.4800      0.67404910
       6537.9500      0.66273730
       6539.4200      0.67303760
       6540.8900      0.63845890
       6542.3600      0.62539040
       6543.8300      0.68544280
       6545.3000      0.68473210
       6546.7700      0.62115230
       6548.2400      0.60472600
       6549.7100      0.63783880
       6551.1800      0.67170540
       6552.6500      0.62416920
       6554.1200      0.62297300
       6555.5900      0.63393830
       6557.0600      0.64740160
       6558.5300      0.63023790
       6560.0000      0.62965140
       6561.4700      0.63823260
       6562.9399      0.64342860
       6564.4100      0.66285410
       6565.8800      0.66211790
       6567.3500      0.67558430
       6568.8200      0.67619870
       6570.2900      0.63967780
       6571.7600      0.61709270
       6573.2300      0.63895790
       6574.7000      0.67439910
       6576.1700      0.69037230
       6577.6400      0.66589910
       6579.1100      0.68896340
       6580.5800      0.69221350
       6582.0500      0.63873220
       6583.5200      0.65140800
       6584.9900      0.67483460
       6586.4600      0.66865610
       6587.9300      0.67266760
       6589.4000      0.75407580
       6590.8700      0.87753700
       6592.3400      0.90101280
       6593.8100      0.84542140
       6595.2800      0.82296360
       6596.7500      0.72252620
       6598.2200      0.62049610
       6599.6900      0.64592350
       6601.1600      0.63158180
       6602.6300      0.56678900
       6604.1000      0.56673180
       6605.5700      0.59240730
       6607.0400      0.60141410
       6608.5100      0.61623990
       6609.9800      0.62937100
       6611.4500      0.65962200
       6612.9200      0.66532840
       6614.3900      0.66187730
       6615.8600      0.68626060
       6617.3300      0.66150980
       6618.8000      0.62377320
       6620.2700      0.62041630
       6621.7400      0.63335590
       6623.2100      0.61279540
       6624.6800      0.61127050
       6626.1500      0.59544810
       6627.6200      0.59046340
       6629.0900      0.55434600
       6630.5600      0.57331360
       6632.0300      0.58413080
       6633.5000      0.60543620
       6634.9700      0.56765270
       6636.4400      0.54434280
       6637.9100      0.57308430
       6639.3800      0.52376150
       6640.8500      0.55025700
       6642.3200      0.57135760
       6643.7900      0.56595160
       6645.2600      0.50296870
       6646.7300      0.56338830
       6648.2000      0.57928130
       6649.6700      0.56319080
       6651.1400      0.49870110
       6652.6100      0.51637150
       6654.0800      0.51767330
       6655.5500      0.54283520
       6657.0200      0.52730970
       6658.4900      0.54785490
       6659.9600      0.53803460
       6661.4300      0.54064670
       6662.9000      0.53450980
       6664.3700      0.53361080
       6665.8400      0.49810720
       6667.3100      0.53711480
       6668.7800      0.53921680
       6670.2500      0.52852680
       6671.7200      0.52273430
       6673.1900      0.51024730
       6674.6600      0.50922190
       6676.1300      0.50182570
       6677.6000      0.53264890
       6679.0700      0.48765250
       6680.5400      0.49388800
       6682.0100      0.46574850
       6683.4800      0.47993720
       6684.9500      0.52157250
       6686.4200      0.51861610
       6687.8900      0.51113600
       6689.3600      0.52951480
       6690.8300      0.51693540
       6692.3000      0.48701190
       6693.7700      0.50079640
       6695.2400      0.51512760
       6696.7100      0.49905760
       6698.1800      0.47663040
       6699.6500      0.46671900
       6701.1200      0.47343900
       6702.5900      0.49059220
       6704.0600      0.46671240
       6705.5300      0.47443710
       6707.0000      0.50374020
       6708.4700      0.45097640
       6709.9400      0.46872860
       6711.4100      0.49947810
       6712.8800      0.46322380
       6714.3500      0.46286990
       6715.8200      0.43555420
       6717.2900      0.44312000
       6718.7600      0.48271800
       6720.2300      0.47090780
       6721.7000      0.47051000
       6723.1700      0.46964670
       6724.6400      0.42867600
       6726.1100      0.45506080
       6727.5800      0.44515740
       6729.0500      0.44832780
       6730.5200      0.44934790
       6731.9900      0.44058180
       6733.4600      0.40437080
       6734.9300      0.40734710
       6736.4000      0.39898610
       6737.8700      0.41717370
       6739.3400      0.42688510
       6740.8100      0.40173190
       6742.2800      0.42338820
       6743.7500      0.41676450
       6745.2200      0.46097050
       6746.6900      0.49036240
       6748.1600      0.47878200
       6749.6300      0.47773840
       6751.1000      0.42656650
       6752.5700      0.37781680
       6754.0400      0.39633120
       6755.5100      0.39234300
       6756.9800      0.38828740
       6758.4500      0.41526210
       6759.9200      0.43953410
       6761.3900      0.44557600
       6762.8600      0.45628790
       6764.3300      0.42544360
       6765.8000      0.38862290
       6767.2700      0.39513760
       6768.7400      0.38304020
       6770.2100      0.39636720
       6771.6800      0.37249620
       6773.1500      0.36190410
       6774.6200      0.38471180
       6776.0900      0.39468000
       6777.5600      0.37500400
       6779.0300      0.37688270
       6780.5000      0.37379550
       6781.9700      0.37314440
       6783.4400      0.39571460
       6784.9100      0.39072160
       6786.3800      0.38851840
       6787.8500      0.41464920
       6789.3200      0.42221100
       6790.7900      0.39869140
       6792.2600      0.42222840
       6793.7300      0.44367190
       6795.2000      0.40254800
       6796.6700      0.39901470
       6798.1400      0.38605140
       6799.6100      0.38817520
       6801.0800      0.40528190
       6802.5500      0.41103560
       6804.0200      0.40379100
       6805.4900      0.39436990
       6806.9600      0.38958640
       6808.4300      0.39876010
       6809.9000      0.43466470
       6811.3700      0.41550010
       6812.8400      0.38351500
       6814.3100      0.38055950
       6815.7800      0.38041960
       6817.2500      0.39615050
       6818.7200      0.42359420
       6820.1900      0.41555010
       6821.6600      0.40839240
       6823.1300      0.41178010
       6824.6000      0.41613490
       6826.0700      0.41166490
       6827.5400      0.38760410
       6829.0100      0.39738230
       6830.4800      0.39721050
       6831.9500      0.38621710
       6833.4200      0.38104510
       6834.8900      0.39163600
       6836.3600      0.40249050
       6837.8300      0.40920660
       6839.3000      0.40251730
       6840.7700      0.40838490
       6842.2400      0.42502880
       6843.7100      0.39061880
       6845.1800      0.36991970
       6846.6500      0.37191970
       6848.1200      0.40022930
       6849.5900      0.40930140
       6851.0600      0.40253810
       6852.5300      0.40099840
       6854.0000      0.38685320
       6855.4700      0.40311240
       6856.9400      0.39593090
       6858.4100      0.35368390
       6859.8800      0.36543580
       6861.3500      0.36043160
       6862.8200      0.38931370
       6864.2900      0.40427890
       6865.7600      0.31621180
       6867.2300      0.30499010
       6868.7000      0.33649330
       6870.1700      0.37603460
       6871.6400      0.35325840
       6873.1100      0.39956910
       6874.5800      0.37332070
       6876.0499      0.35505230
       6877.5200      0.33859600
       6878.9900      0.31449950
       6880.4600      0.32805530
       6881.9300      0.35426120
       6883.4000      0.34709000
       6884.8700      0.30252090
       6886.3400      0.36774930
       6887.8100      0.37461780
       6889.2800      0.36202510
       6890.7500      0.37366360
       6892.2200      0.34501160
       6893.6900      0.35085320
       6895.1600      0.35956510
       6896.6300      0.35636480
       6898.1000      0.34890620
       6899.5700      0.33500780
       6901.0400      0.35889020
       6902.5100      0.36170400
       6903.9800      0.34984480
       6905.4500      0.33127130
       6906.9200      0.30538940
       6908.3900      0.34415790
       6909.8600      0.35110660
       6911.3300      0.34536560
       6912.8000      0.35394220
       6914.2700      0.35032380
       6915.7400      0.34328800
       6917.2100      0.32289720
       6918.6800      0.35453560
       6920.1500      0.34469570
       6921.6200      0.32527140
       6923.0900      0.32737680
       6924.5600      0.33968030
       6926.0300      0.34753550
       6927.5000      0.32160130
       6928.9700      0.34480830
       6930.4400      0.37113650
       6931.9100      0.36539540
       6933.3800      0.35225160
       6934.8500      0.32483940
       6936.3200      0.35979290
       6937.7900      0.34881180
       6939.2600      0.34911590
       6940.7300      0.35245180
       6942.2000      0.34406610
       6943.6700      0.34401750
       6945.1400      0.35171490
       6946.6100      0.35760800
       6948.0800      0.32828930
       6949.5500      0.37041090
       6951.0200      0.38278550
       6952.4900      0.35934450
       6953.9600      0.38292870
       6955.4300      0.41008310
       6956.9000      0.38748310
       6958.3700      0.36318750
       6959.8400      0.38737880
       6961.3100      0.34842020
       6962.7800      0.36203930
       6964.2500      0.38585430
       6965.7200      0.37889100
       6967.1900      0.41299670
       6968.6600      0.38754110
       6970.1300      0.37966980
       6971.6000      0.42240160
       6973.0700      0.37991500
       6974.5400      0.35686320
       6976.0100      0.40262970
       6977.4800      0.39616900
       6978.9500      0.41576020
       6980.4200      0.41554390
       6981.8900      0.39266300
       6983.3600      0.39609710
       6984.8300      0.41456440
       6986.3000      0.40365490
       6987.7700      0.43466520
       6989.2400      0.42064090
       6990.7100      0.41442170
       6992.1800      0.43612970
       6993.6500      0.44526220
       6995.1200      0.44658650
       6996.5900      0.42674330
       6998.0600      0.44111790
       6999.5300      0.46040730
       7001.0000      0.43423210
       7002.4700      0.44983240
       7003.9400      0.48589080
       7005.4100      0.44011700
       7006.8800      0.44353320
       7008.3500      0.43687130
       7009.8200      0.43818480
       7011.2900      0.41457190
       7012.7600      0.41335240
       7014.2300      0.47189300
       7015.7000      0.48413330
       7017.1700      0.45743800
       7018.6400      0.44224800
       7020.1100      0.42670560
       7021.5800      0.43051670
       7023.0500      0.43913640
       7024.5200      0.44433800
       7025.9900      0.45399420
       7027.4600      0.46314060
       7028.9300      0.43538960
       7030.4000      0.44028610
       7031.8700      0.44758940
       7033.3400      0.42325210
       7034.8100      0.41666800
       7036.2800      0.42422200
       7037.7500      0.45976760
       7039.2200      0.45778750
       7040.6900      0.43762020
       7042.1600      0.46962830
       7043.6300      0.46672530
       7045.1000      0.44988540
       7046.5700      0.43490880
       7048.0400      0.41653590
       7049.5100      0.42276640
       7050.9800      0.43132430
       7052.4500      0.40676950
       7053.9200      0.41029760
       7055.3900      0.41586550
       7056.8600      0.44542190
       7058.3300      0.43681340
       7059.8000      0.42909010
       7061.2700      0.44413430
       7062.7400      0.44390250
       7064.2100      0.45188430
       7065.6800      0.47170860
       7067.1500      0.46728310
       7068.6200      0.49445950
       7070.0900      0.48298810
       7071.5600      0.42538610
       7073.0300      0.44298420
       7074.5000      0.47846860
       7075.9700      0.48400190
       7077.4400      0.43815760
       7078.9100      0.41231000
       7080.3800      0.43160260
       7081.8500      0.45889900
       7083.3200      0.44026320
       7084.7900      0.45415670
       7086.2600      0.48232320
       7087.7300      0.46648640
       7089.2000      0.46984240
       7090.6700      0.49638500
       7092.1400      0.48884430
       7093.6100      0.47422580
       7095.0800      0.49990390
       7096.5500      0.47332500
       7098.0200      0.44709790
       7099.4900      0.46839610
       7100.9600      0.47073240
       7102.4300      0.46669200
       7103.9000      0.45661650
       7105.3700      0.43340300
       7106.8400      0.43370580
       7108.3100      0.45149020
       7109.7800      0.47157310
       7111.2500      0.45464210
       7112.7200      0.43080840
       7114.1900      0.43764800
       7115.6600      0.44575760
       7117.1300      0.44633050
       7118.6000      0.43004980
       7120.0700      0.41613070
       7121.5400      0.44955810
       7123.0100      0.46558930
       7124.4800      0.42305560
       7125.9500      0.43874960
       7127.4200      0.42967050
       7128.8900      0.42576440
       7130.3600      0.45717200
       7131.8300      0.47061400
       7133.3000      0.44209500
       7134.7700      0.41591390
       7136.2400      0.47078820
       7137.7100      0.45600860
       7139.1800      0.45333280
       7140.6500      0.45807600
       7142.1200      0.44721700
       7143.5900      0.46781190
       7145.0600      0.43930430
       7146.5300      0.44248700
       7148.0000      0.48088520
       7149.4700      0.45833700
       7150.9400      0.45478080
       7152.4100      0.44632760
       7153.8800      0.47021880
       7155.3500      0.47716390
       7156.8200      0.48468460
       7158.2900      0.48622740
       7159.7600      0.47327890
       7161.2300      0.49502290
       7162.7000      0.49058760
       7164.1700      0.47753270
       7165.6400      0.49879700
       7167.1100      0.51730310
       7168.5800      0.50371330
       7170.0500      0.50208880
       7171.5200      0.51458820
       7172.9900      0.51667850
       7174.4600      0.50414020
       7175.9300      0.50023190
       7177.4000      0.53862480
       7178.8700      0.52505000
       7180.3400      0.50463220
       7181.8100      0.50550730
       7183.2800      0.49968970
       7184.7500      0.50087240
       7186.2200      0.54032460
       7187.6900      0.58933220
       7189.1599      0.57819390
       7190.6300      0.54527850
       7192.1000      0.55302150
       7193.5700      0.51291280
       7195.0400      0.52422920
       7196.5100      0.54638150
       7197.9800      0.54630140
       7199.4500      0.59409530
       7200.9200      0.58425580
       7202.3900      0.58571020
       7203.8600      0.58994560
       7205.3300      0.57214390
       7206.8000      0.55465750
       7208.2700      0.54997530
       7209.7400      0.52175910
       7211.2100      0.55531030
       7212.6800      0.53995950
       7214.1500      0.53237680
       7215.6200      0.53186850
       7217.0900      0.54227320
       7218.5600      0.55479400
       7220.0300      0.54946430
       7221.5000      0.52129420
       7222.9700      0.51986460
       7224.4400      0.53835960
       7225.9100      0.56884880
       7227.3800      0.56177840
       7228.8500      0.58168450
       7230.3200      0.55562930
       7231.7900      0.53701530
       7233.2600      0.61630370
       7234.7300      0.63363660
       7236.2000      0.64637860
       7237.6700      0.62999520
       7239.1400      0.62516270
       7240.6100      0.60064790
       7242.0800      0.66886120
       7243.5500      0.61463330
       7245.0200      0.61275450
       7246.4900      0.62907390
       7247.9600      0.60783590
       7249.4300      0.59670870
       7250.9000      0.60680350
       7252.3700      0.60198870
       7253.8400      0.62506030
       7255.3100      0.64342640
       7256.7800      0.64586450
       7258.2500      0.65498240
       7259.7200      0.65001730
       7261.1900      0.65431570
       7262.6600      0.67593290
       7264.1300      0.68072000
       7265.6000      0.69199290
       7267.0700      0.68387710
       7268.5400      0.65842620
       7270.0100      0.62387540
       7271.4800      0.64413050
       7272.9500      0.67569940
       7274.4200      0.68304210
       7275.8900      0.74334810
       7277.3600      0.73979590
       7278.8300      0.69927420
       7280.3000      0.66301040
       7281.7700      0.67208290
       7283.2400      0.66058210
       7284.7100      0.67281290
       7286.1800      0.68151860
       7287.6500      0.70337450
       7289.1200      0.72946160
       7290.5900      0.73221390
       7292.0600      0.70887230
       7293.5300      0.73005630
       7295.0000      0.72705040
       7296.4700      0.73771200
       7297.9400      0.70987310
       7299.4100      0.73022940
       7300.8800      0.78023750
       7302.3500      0.77261600
       7303.8200      0.76987100
       7305.2900      0.76825710
       7306.7600      0.72905560
       7308.2300      0.75792780
       7309.7000      0.77991110
       7311.1700      0.79829320
       7312.6400      0.79476390
       7314.1100      0.79337940
       7315.5800      0.80373870
       7317.0500      0.85371910
       7318.5200      0.78457350
       7319.9900      0.77120140
       7321.4600      0.76039290
       7322.9300      0.75291340
       7324.4000      0.73957900
       7325.8700      0.74227740
       7327.3400      0.73151730
       7328.8100      0.75148250
       7330.2800      0.75884530
       7331.7500      0.73122600
       7333.2200      0.70751010
       7334.6900      0.74169490
       7336.1600      0.75268850
       7337.6300      0.78237340
       7339.1000      0.81613500
       7340.5700      0.75660390
       7342.0400      0.74413880
       7343.5100      0.75170420
       7344.9800      0.77879690
       7346.4500      0.72146920
       7347.9200      0.78242220
       7349.3900      0.76471090
       7350.8600      0.75655640
       7352.3300      0.75514160
       7353.8000      0.75165080
       7355.2700      0.75529860
       7356.7400      0.71296270
       7358.2100      0.70568640
       7359.6800      0.70593230
       7361.1500      0.72959890
       7362.6200      0.73212370
       7364.0900      0.70187700
       7365.5600      0.69926050
       7367.0300      0.69672380
       7368.5000      0.66267160
       7369.9700      0.62508420
       7371.4400      0.63921510
       7372.9100      0.65741500
       7374.3800      0.64974950
       7375.8500      0.67270030
       7377.3200      0.68060950
       7378.7900      0.66926020
       7380.2600      0.67469380
       7381.7300      0.65040120
       7383.2000      0.61252150
       7384.6700      0.60660990
       7386.1400      0.63848700
       7387.6100      0.60639300
       7389.0800      0.62831650
       7390.5500      0.64340940
       7392.0200      0.62376930
       7393.4900      0.61519270
       7394.9600      0.61362810
       7396.4300      0.57679180
       7397.9000      0.57369540
       7399.3700      0.55145070
       7400.8400      0.56865520
       7402.3100      0.61762390
       7403.7800      0.59934050
       7405.2500      0.58883970
       7406.7200      0.59543620
       7408.1900      0.56701540
       7409.6600      0.56885300
       7411.1300      0.58703930
       7412.6000      0.57560150
       7414.0700      0.56353040
