Units are: observed wavelength (Ang), observed flux (10^-15 erg/s/cm^2/Ang)
       3478.0000     0.070386750
       3479.4700     0.027480440
       3480.9400     0.028154660
       3482.4100     0.030818800
       3483.8800     0.071360880
       3485.3500     0.024247640
       3486.8200     0.058124810
       3488.2900      0.12195830
       3489.7600    -0.054731930
       3491.2300     -0.12405460
       3492.7000     0.031034180
       3494.1700      0.13359650
       3495.6400     0.082977050
       3497.1100     -0.12517640
       3498.5800     -0.23972840
       3500.0500     -0.16965510
       3501.5200     0.021194040
       3502.9900    -0.034065400
       3504.4600       1.1701310
       3505.9300       2.3588700
       3507.4000      0.97209290
       3508.8700     -0.44662750
       3510.3400     -0.36311760
       3511.8100    -0.022706470
       3513.2800     -0.18330220
       3514.7500      0.86544080
       3516.2200       1.4376960
       3517.6900      0.22775590
       3519.1600     -0.23221210
       3520.6300    -0.038592600
       3522.1000     0.015803370
       3523.5700    -0.083153050
       3525.0400   -0.0057915020
       3526.5100      0.20708470
       3527.9800     0.010966570
       3529.4500     0.068752670
       3530.9200      0.12953000
       3532.3900     0.047908180
       3533.8600      0.22052440
       3535.3300     0.055576850
       3536.8000     -0.15328450
       3538.2700      0.25891730
       3539.7400      0.36788010
       3541.2100     0.033222880
       3542.6800    -0.082184020
       3544.1500     0.019472270
       3545.6200      0.33516380
       3547.0900      0.14391490
       3548.5600     -0.99088070
       3550.0300     -0.59404220
       3551.5000     0.099386220
       3552.9700    -0.087327790
       3554.4400    -0.065186200
       3555.9100     0.018445610
       3557.3800     0.064427960
       3558.8500    -0.025666010
       3560.3200     -0.18825110
       3561.7900    -0.059487820
       3563.2600      0.13200380
       3564.7300    -0.084792780
       3566.2000     -0.21986530
       3567.6700    -0.092632240
       3569.1400     -0.14139020
       3570.6100    -0.098883710
       3572.0800     0.049187110
       3573.5500    -0.039182530
       3575.0200     -0.13205040
       3576.4900     0.014595230
       3577.9600      0.17210310
       3579.4300     0.096489450
       3580.9000    -0.027344850
       3582.3700      0.27465310
       3583.8400      0.38859360
       3585.3100     0.079114690
       3586.7800     0.048392040
       3588.2500     0.031848770
       3589.7200      0.13245680
       3591.1900     0.011258220
       3592.6600     -0.22569950
       3594.1300     -0.24878930
       3595.6000     -0.11699690
       3597.0700      0.15004500
       3598.5399      0.18584040
       3600.0100     0.043458950
       3601.4800     -0.10566000
       3602.9500     -0.13263690
       3604.4200   -0.0031604160
       3605.8900     0.027082990
       3607.3600    -0.089849900
       3608.8300     -0.10016750
       3610.3000   -0.0047976110
       3611.7700      0.10739120
       3613.2400    -0.048619520
       3614.7100    -0.097358070
       3616.1800      0.21903830
       3617.6500      0.47962650
       3619.1200     0.098033430
       3620.5900     -0.13034490
       3622.0600      0.11055370
       3623.5300     0.058967800
       3625.0000    -0.037565400
       3626.4700    -0.098815810
       3627.9400     0.065139760
       3629.4100     0.020212420
       3630.8800     -0.30376270
       3632.3500     -0.20117320
       3633.8200     -0.19690010
       3635.2900      0.47680540
       3636.7600       1.0959010
       3638.2300      0.33661800
       3639.7000     -0.19115400
       3641.1700     -0.13012250
       3642.6400    -0.014497390
       3644.1100     -0.12746280
       3645.5800      0.65454000
       3647.0500       1.1768030
       3648.5200      0.30896070
       3649.9900   -0.0060189230
       3651.4600      0.14252370
       3652.9300     0.079434040
       3654.4000     0.076585080
       3655.8700     0.046045880
       3657.3400   -0.0028595810
       3658.8100     0.054585410
       3660.2800    -0.072039660
       3661.7500    -0.035429790
       3663.2200     0.022750570
       3664.6900    -0.021510470
       3666.1600     -0.22743570
       3667.6300    -0.065252410
       3669.1000      0.20664910
       3670.5700      0.40250500
       3672.0400      0.32451660
       3673.5100   -0.0084520580
       3674.9800   -0.0043650370
       3676.4500    -0.018553920
       3677.9200     0.043270580
       3679.3900     0.079609360
       3680.8600     -0.21664460
       3682.3300    -0.093265650
       3683.8000      0.18167300
       3685.2700     0.067674570
       3686.7400    0.0070299440
       3688.2100     0.039151970
       3689.6800     0.030902630
       3691.1500    -0.071733740
       3692.6200      0.12132140
       3694.0900      0.25791800
       3695.5600      0.15822440
       3697.0300      0.18386850
       3698.5000      0.28922110
       3699.9700      0.25016970
       3701.4400    -0.071606260
       3702.9100     -0.17871370
       3704.3800      0.16924960
       3705.8500      0.21359380
       3707.3200      0.11537060
       3708.7900      0.10654090
       3710.2600      0.27683180
       3711.7300      0.37001820
       3713.2000      0.11539400
       3714.6700    -0.048299690
       3716.1400    -0.083435390
       3717.6100    -0.011676040
       3719.0800     0.035343550
       3720.5500     0.092947300
       3722.0200      0.28664910
       3723.4900      0.33092170
       3724.9600     0.045133730
       3726.4300     0.045397310
       3727.9000      0.37913000
       3729.3700      0.25309210
       3730.8400      0.54352710
       3732.3100      0.44759770
       3733.7800    -0.065434930
       3735.2500    -0.067910690
       3736.7200     0.051819470
       3738.1900      0.11619150
       3739.6600     0.057111130
       3741.1300      0.12395900
       3742.6000      0.20039530
       3744.0700    0.0053414970
       3745.5400      0.11159220
       3747.0100      0.34719190
       3748.4800      0.38774920
       3749.9500      0.32033030
       3751.4200      0.14551410
       3752.8900     0.092744510
       3754.3600     0.057744080
       3755.8300     0.065793760
       3757.3000      0.28283740
       3758.7700      0.18552180
       3760.2400     -0.10182830
       3761.7100     0.090294100
       3763.1800      0.19866090
       3764.6500     0.046104730
       3766.1200     0.029312210
       3767.5900     0.018439020
       3769.0600      0.13018570
       3770.5300      0.26500760
       3772.0000      0.16899630
       3773.4700     0.068196620
       3774.9400    -0.085117430
       3776.4100     -0.15036780
       3777.8800    -0.019537010
       3779.3500     0.068927580
       3780.8200      0.17016120
       3782.2900      0.17486420
       3783.7600     0.075703830
       3785.2300     0.088069280
       3786.7000      0.14092420
       3788.1700     0.075838200
       3789.6400     0.088336650
       3791.1100      0.22704250
       3792.5800      0.31132720
       3794.0500      0.24573850
       3795.5200      0.15683230
       3796.9900      0.16079290
       3798.4600      0.27273900
       3799.9300      0.24136430
       3801.4000     0.094125860
       3802.8700     0.069974910
       3804.3400    -0.041995920
       3805.8100     0.063493720
       3807.2800      0.33817340
       3808.7500      0.23439790
       3810.2200      0.14418060
       3811.6900      0.17879870
       3813.1600     0.049661550
       3814.6300     0.014184740
       3816.1000      0.10204060
       3817.5700      0.10317560
       3819.0400    -0.014807140
       3820.5100      0.16074590
       3821.9800      0.21252840
       3823.4500      0.18330720
       3824.9200      0.24779680
       3826.3900      0.13957720
       3827.8600     0.021200420
       3829.3300      0.23969400
       3830.8000      0.24298090
       3832.2700      0.36705750
       3833.7400      0.34740530
       3835.2100      0.21751970
       3836.6800      0.22853740
       3838.1500      0.26648470
       3839.6200      0.13159700
       3841.0900     0.070527000
       3842.5600      0.28073290
       3844.0300      0.53674220
       3845.5000      0.38111110
       3846.9700      0.10496990
       3848.4400     0.075807350
       3849.9100      0.22885270
       3851.3800      0.12566040
       3852.8500    -0.027362590
       3854.3200     0.070915710
       3855.7900      0.20818200
       3857.2600      0.12915080
       3858.7300     0.017697900
       3860.2000     0.072154990
       3861.6700     0.013761790
       3863.1400     0.049168920
       3864.6100      0.20140690
       3866.0800      0.11302250
       3867.5500     0.028345690
       3869.0200     0.080729510
       3870.4900      0.12677490
       3871.9600      0.16573890
       3873.4300      0.13143360
       3874.9000     0.083552110
       3876.3700     0.087337640
       3877.8400     0.077136170
       3879.3100      0.11103530
       3880.7800      0.20834820
       3882.2500      0.18619500
       3883.7200      0.11981800
       3885.1900      0.11403600
       3886.6600      0.16842480
       3888.1300      0.19802310
       3889.6000      0.19006950
       3891.0700      0.25201730
       3892.5400      0.23732820
       3894.0100      0.15692430
       3895.4800      0.17633630
       3896.9500      0.19460840
       3898.4200      0.21400720
       3899.8900      0.24194310
       3901.3600      0.26513150
       3902.8300      0.39049530
       3904.3000      0.34328620
       3905.7700      0.19755940
       3907.2400      0.16722590
       3908.7100      0.45679480
       3910.1800      0.56156190
       3911.6499      0.25760950
       3913.1200     0.099880340
       3914.5900      0.15693250
       3916.0600      0.40833780
       3917.5300      0.47783340
       3919.0000      0.26658160
       3920.4700      0.17128320
       3921.9400      0.26574310
       3923.4100      0.48377220
       3924.8800      0.40187070
       3926.3500      0.27118510
       3927.8200      0.25316880
       3929.2900      0.20466250
       3930.7600      0.23027960
       3932.2300      0.22195710
       3933.7000      0.23367240
       3935.1700      0.35992330
       3936.6400      0.39174380
       3938.1100      0.32999540
       3939.5800      0.34300540
       3941.0500      0.35071490
       3942.5200      0.32749870
       3943.9900      0.42838510
       3945.4600      0.39246120
       3946.9300      0.27552920
       3948.4000      0.30386580
       3949.8700      0.29207730
       3951.3400      0.26386800
       3952.8100      0.32940410
       3954.2800      0.28978910
       3955.7500      0.28168530
       3957.2200      0.35510720
       3958.6900      0.27735130
       3960.1600      0.22312060
       3961.6300      0.26149330
       3963.1000      0.32667360
       3964.5700      0.33202510
       3966.0400      0.34260040
       3967.5100      0.35631010
       3968.9800      0.29737960
       3970.4500      0.24477910
       3971.9200      0.26899010
       3973.3900      0.38208530
       3974.8600      0.49016510
       3976.3300      0.40657470
       3977.8000      0.28261760
       3979.2700      0.24212520
       3980.7400      0.24579330
       3982.2100      0.31988430
       3983.6800      0.33942430
       3985.1500      0.29010640
       3986.6200      0.30941810
       3988.0900      0.38219570
       3989.5600      0.37015020
       3991.0300      0.44919090
       3992.5000      0.51676930
       3993.9700      0.39955040
       3995.4400      0.27851660
       3996.9100      0.30234150
       3998.3800      0.30563620
       3999.8500      0.34998900
       4001.3200      0.39714340
       4002.7900      0.33867260
       4004.2600      0.39895080
       4005.7300      0.51145080
       4007.2000      0.49620260
       4008.6700      0.37380110
       4010.1400      0.28084050
       4011.6100      0.33873260
       4013.0800      0.42867630
       4014.5500      0.40718760
       4016.0200      0.38062420
       4017.4900      0.40230390
       4018.9600      0.36343250
       4020.4300      0.32460110
       4021.9000      0.41494500
       4023.3700      0.48601930
       4024.8400      0.46312450
       4026.3100      0.49691380
       4027.7800      0.46826800
       4029.2500      0.41931200
       4030.7200      0.39823870
       4032.1900      0.36447160
       4033.6600      0.51525150
       4035.1300      0.55843580
       4036.6000      0.43509890
       4038.0700      0.36475340
       4039.5400      0.38626360
       4041.0100      0.37862240
       4042.4800      0.24969680
       4043.9500      0.27931360
       4045.4200      0.34787480
       4046.8900      0.41308250
       4048.3600      0.59927910
       4049.8300      0.75943340
       4051.3000      0.65895580
       4052.7700      0.38838400
       4054.2400      0.32373030
       4055.7100      0.34592490
       4057.1800      0.31721450
       4058.6500      0.36880420
       4060.1200      0.38576770
       4061.5900      0.42924900
       4063.0600      0.44848330
       4064.5300      0.47665940
       4066.0000      0.49419130
       4067.4700      0.49206530
       4068.9400      0.38621060
       4070.4100      0.33944570
       4071.8800      0.41294810
       4073.3500      0.37425900
       4074.8200      0.38695230
       4076.2900      0.40603790
       4077.7600      0.34772970
       4079.2300      0.31882620
       4080.7000      0.36548180
       4082.1700      0.48685590
       4083.6400      0.43723140
       4085.1100      0.36102710
       4086.5800      0.40738880
       4088.0500      0.33925820
       4089.5200      0.29093340
       4090.9900      0.30970250
       4092.4600      0.26788180
       4093.9300      0.27628730
       4095.4000      0.34508130
       4096.8700      0.33729330
       4098.3400      0.30587720
       4099.8100      0.32892790
       4101.2800      0.33397870
       4102.7500      0.33435240
       4104.2200      0.36119510
       4105.6900      0.36311050
       4107.1600      0.32252250
       4108.6300      0.32948450
       4110.1000      0.28694050
       4111.5700      0.27057050
       4113.0400      0.37179730
       4114.5100      0.34604500
       4115.9800      0.23651690
       4117.4500      0.27653750
       4118.9200      0.34058470
       4120.3900      0.28493160
       4121.8600      0.28073640
       4123.3300      0.30036100
       4124.8000      0.31368370
       4126.2700      0.32768880
       4127.7400      0.29826730
       4129.2100      0.34878020
       4130.6800      0.37610890
       4132.1500      0.31530320
       4133.6200      0.26078240
       4135.0900      0.28820710
       4136.5600      0.29579630
       4138.0300      0.30933050
       4139.5000      0.28414260
       4140.9700      0.32775660
       4142.4400      0.33399780
       4143.9100      0.38790790
       4145.3800      0.40362520
       4146.8500      0.31234490
       4148.3200      0.35707900
       4149.7900      0.37050170
       4151.2600      0.32793330
       4152.7300      0.28356560
       4154.2000      0.25819310
       4155.6700      0.23252270
       4157.1400      0.33639140
       4158.6100      0.29382810
       4160.0800      0.19738210
       4161.5500      0.22002120
       4163.0200      0.32364130
       4164.4900      0.34748290
       4165.9600      0.22307380
       4167.4300      0.22061360
       4168.9000      0.26194750
       4170.3700      0.25835690
       4171.8400      0.32976850
       4173.3100      0.29800590
       4174.7800      0.22778840
       4176.2500      0.18949250
       4177.7200      0.18380150
       4179.1900      0.26070990
       4180.6600      0.22374420
       4182.1300      0.17279520
       4183.6000      0.25255310
       4185.0700      0.25841740
       4186.5400      0.23677700
       4188.0100      0.24324100
       4189.4800      0.21160190
       4190.9500      0.20371670
       4192.4200      0.21106550
       4193.8900      0.21484220
       4195.3600      0.26152890
       4196.8300      0.29869590
       4198.3000      0.27907880
       4199.7700      0.25354890
       4201.2400      0.23373610
       4202.7100      0.19666460
       4204.1800      0.24704680
       4205.6500      0.27172010
       4207.1200      0.24186550
       4208.5900      0.24893370
       4210.0600      0.22146230
       4211.5300      0.21394430
       4213.0000      0.24622220
       4214.4700      0.28057720
       4215.9400      0.26761880
       4217.4100      0.21574190
       4218.8800      0.19970470
       4220.3500      0.22649810
       4221.8200      0.23563110
       4223.2900      0.21369040
       4224.7599      0.23791520
       4226.2300      0.26400400
       4227.7000      0.27333430
       4229.1700      0.27379750
       4230.6400      0.24289170
       4232.1100      0.27937770
       4233.5800      0.29854510
       4235.0500      0.26387620
       4236.5200      0.29942050
       4237.9900      0.29433420
       4239.4600      0.21814320
       4240.9300      0.25495120
       4242.4000      0.30149150
       4243.8700      0.25984940
       4245.3400      0.27258760
       4246.8100      0.29272190
       4248.2800      0.28499560
       4249.7500      0.29575700
       4251.2200      0.23533910
       4252.6900      0.19694430
       4254.1600      0.26983550
       4255.6300      0.30785700
       4257.1000      0.30598880
       4258.5700      0.29011010
       4260.0400      0.26017700
       4261.5100      0.28601120
       4262.9800      0.31480470
       4264.4500      0.31152490
       4265.9200      0.27911840
       4267.3900      0.24079090
       4268.8600      0.26923700
       4270.3300      0.29100930
       4271.8000      0.27938680
       4273.2700      0.27317930
       4274.7400      0.25418900
       4276.2100      0.30074540
       4277.6800      0.33972800
       4279.1500      0.30722120
       4280.6200      0.30854760
       4282.0900      0.33370750
       4283.5600      0.32138040
       4285.0300      0.29667580
       4286.5000      0.28070090
       4287.9700      0.28823340
       4289.4400      0.29878830
       4290.9100      0.29956360
       4292.3800      0.31491790
       4293.8500      0.32174210
       4295.3200      0.27687850
       4296.7900      0.26620240
       4298.2600      0.30363370
       4299.7300      0.29166390
       4301.2000      0.30635630
       4302.6700      0.34785400
       4304.1400      0.31246910
       4305.6100      0.30186050
       4307.0800      0.30845330
       4308.5500      0.30781580
       4310.0200      0.31054810
       4311.4900      0.29214180
       4312.9600      0.27184320
       4314.4300      0.28022190
       4315.9000      0.29741780
       4317.3700      0.28246840
       4318.8400      0.26654100
       4320.3100      0.29205870
       4321.7800      0.32089430
       4323.2500      0.31305780
       4324.7200      0.29547520
       4326.1900      0.29645760
       4327.6600      0.28386170
       4329.1300      0.26613530
       4330.6000      0.28568940
       4332.0700      0.30078050
       4333.5400      0.30511540
       4335.0100      0.32221570
       4336.4800      0.30081880
       4337.9500      0.29000570
       4339.4200      0.29697310
       4340.8900      0.28942890
       4342.3600      0.27741650
       4343.8300      0.29593820
       4345.3000      0.28345690
       4346.7700      0.25656310
       4348.2400      0.26992040
       4349.7100      0.29545180
       4351.1800      0.29024470
       4352.6500      0.28446850
       4354.1200      0.25609190
       4355.5900      0.29620630
       4357.0600      0.37513900
       4358.5300      0.32496150
       4360.0000      0.30715780
       4361.4700      0.33573000
       4362.9400      0.27611070
       4364.4100      0.23154480
       4365.8800      0.25989590
       4367.3500      0.25892760
       4368.8200      0.30873260
       4370.2900      0.34765680
       4371.7600      0.29754120
       4373.2300      0.30321570
       4374.7000      0.30817540
       4376.1700      0.26807260
       4377.6400      0.32910920
       4379.1100      0.35611460
       4380.5800      0.30058820
       4382.0500      0.32672830
       4383.5200      0.37609910
       4384.9900      0.36340060
       4386.4600      0.35908210
       4387.9300      0.35146380
       4389.4000      0.29257870
       4390.8700      0.28895400
       4392.3400      0.33181940
       4393.8100      0.32086910
       4395.2800      0.30811570
       4396.7500      0.30701610
       4398.2200      0.30141030
       4399.6900      0.33690290
       4401.1600      0.34713180
       4402.6300      0.33800460
       4404.1000      0.34153670
       4405.5700      0.33266240
       4407.0400      0.30754860
       4408.5100      0.25998660
       4409.9800      0.27033910
       4411.4500      0.27859980
       4412.9200      0.28548180
       4414.3900      0.28734660
       4415.8600      0.25718230
       4417.3300      0.31905490
       4418.8000      0.31602810
       4420.2700      0.27114110
       4421.7400      0.26781100
       4423.2100      0.27849390
       4424.6800      0.28969360
       4426.1500      0.26760720
       4427.6200      0.26743460
       4429.0900      0.30309460
       4430.5600      0.31364460
       4432.0300      0.28844790
       4433.5000      0.22981830
       4434.9700      0.24345180
       4436.4400      0.29133940
       4437.9100      0.31376790
       4439.3800      0.31380750
       4440.8500      0.26351840
       4442.3200      0.25625430
       4443.7900      0.27312550
       4445.2600      0.26158740
       4446.7300      0.27955550
       4448.2000      0.28490400
       4449.6700      0.26684770
       4451.1400      0.27111510
       4452.6100      0.29554670
       4454.0800      0.25878490
       4455.5500      0.25518390
       4457.0200      0.28122360
       4458.4900      0.28305990
       4459.9600      0.25694360
       4461.4300      0.21867050
       4462.9000      0.24744860
       4464.3700      0.27434360
       4465.8400      0.29476020
       4467.3100      0.32018880
       4468.7800      0.31151840
       4470.2500      0.26141550
       4471.7200      0.25698770
       4473.1900      0.29108490
       4474.6600      0.26723640
       4476.1300      0.25429190
       4477.6000      0.26238440
       4479.0700      0.24034010
       4480.5400      0.23330640
       4482.0100      0.24402840
       4483.4800      0.28094350
       4484.9500      0.31798910
       4486.4200      0.30026680
       4487.8900      0.26504290
       4489.3600      0.27240150
       4490.8300      0.27942000
       4492.3000      0.31651460
       4493.7700      0.36712160
       4495.2400      0.34747630
       4496.7100      0.34032440
       4498.1800      0.34857970
       4499.6500      0.33071580
       4501.1200      0.30327450
       4502.5900      0.30094820
       4504.0600      0.31860120
       4505.5300      0.33624780
       4507.0000      0.35283210
       4508.4700      0.33371980
       4509.9400      0.32319960
       4511.4100      0.34784790
       4512.8800      0.39175020
       4514.3500      0.40048360
       4515.8200      0.38136570
       4517.2900      0.37682340
       4518.7600      0.36710960
       4520.2300      0.39060550
       4521.7000      0.39428560
       4523.1700      0.38889810
       4524.6400      0.44565470
       4526.1100      0.42721970
       4527.5800      0.39784420
       4529.0500      0.42052900
       4530.5200      0.42931530
       4531.9900      0.45423190
       4533.4600      0.49138720
       4534.9300      0.48624110
       4536.4000      0.46403830
       4537.8699      0.50268170
       4539.3400      0.51476890
       4540.8100      0.48195660
       4542.2800      0.47844870
       4543.7500      0.47460890
       4545.2200      0.45732290
       4546.6900      0.51395300
       4548.1600      0.54242950
       4549.6300      0.49672810
       4551.1000      0.51587570
       4552.5700      0.55650310
       4554.0400      0.52720500
       4555.5100      0.48332990
       4556.9800      0.47971640
       4558.4500      0.52694240
       4559.9200      0.57470360
       4561.3900      0.56184200
       4562.8600      0.53192600
       4564.3300      0.52377040
       4565.8000      0.51725640
       4567.2700      0.54617590
       4568.7400      0.58371590
       4570.2100      0.58612530
       4571.6800      0.59364480
       4573.1500      0.58234650
       4574.6200      0.55872020
       4576.0900      0.56128420
       4577.5600      0.58275290
       4579.0300      0.59615660
       4580.5000      0.58501910
       4581.9700      0.58049620
       4583.4400      0.59069630
       4584.9100      0.58740880
       4586.3800      0.59428640
       4587.8500      0.60982820
       4589.3200      0.58979530
       4590.7900      0.58602800
       4592.2600      0.60890450
       4593.7300      0.59000660
       4595.2000      0.59706470
       4596.6700      0.62658420
       4598.1400      0.61605920
       4599.6100      0.59179230
       4601.0800      0.59433560
       4602.5500      0.57579050
       4604.0200      0.55792060
       4605.4900      0.57437520
       4606.9600      0.58689550
       4608.4300      0.59734140
       4609.9000      0.60895870
       4611.3700      0.59045730
       4612.8400      0.56208080
       4614.3100      0.58335880
       4615.7800      0.62239210
       4617.2500      0.61649030
       4618.7200      0.57237480
       4620.1900      0.57934510
       4621.6600      0.61088900
       4623.1300      0.62921260
       4624.6000      0.62710760
       4626.0700      0.61636980
       4627.5400      0.59497980
       4629.0100      0.53633850
       4630.4800      0.52172130
       4631.9500      0.55802500
       4633.4200      0.57612040
       4634.8900      0.57160860
       4636.3600      0.58629760
       4637.8300      0.58183360
       4639.3000      0.58606490
       4640.7700      0.58663680
       4642.2400      0.59042940
       4643.7100      0.58790730
       4645.1800      0.57237770
       4646.6500      0.57788430
       4648.1200      0.55879300
       4649.5900      0.55062740
       4651.0600      0.57518990
       4652.5300      0.57577060
       4654.0000      0.55034480
       4655.4700      0.53535840
       4656.9400      0.53585760
       4658.4100      0.55999680
       4659.8800      0.57617350
       4661.3500      0.56479160
       4662.8200      0.57512260
       4664.2900      0.57348450
       4665.7600      0.55854550
       4667.2300      0.54227750
       4668.7000      0.54472770
       4670.1700      0.57062330
       4671.6400      0.54835480
       4673.1100      0.50382880
       4674.5800      0.49472100
       4676.0500      0.50855270
       4677.5200      0.51954330
       4678.9900      0.51157080
       4680.4600      0.49887070
       4681.9300      0.51056290
       4683.4000      0.55818710
       4684.8700      0.55228750
       4686.3400      0.51678570
       4687.8100      0.50641080
       4689.2800      0.48701920
       4690.7500      0.50506420
       4692.2200      0.51619880
       4693.6900      0.52477510
       4695.1600      0.52245160
       4696.6300      0.47939580
       4698.1000      0.50946430
       4699.5700      0.53182050
       4701.0400      0.50957610
       4702.5100      0.50382240
       4703.9800      0.50447310
       4705.4500      0.48247670
       4706.9200      0.46099620
       4708.3900      0.44991140
       4709.8600      0.43987720
       4711.3300      0.42428310
       4712.8000      0.47175370
       4714.2700      0.50656970
       4715.7400      0.48035190
       4717.2100      0.45842880
       4718.6800      0.43748640
       4720.1500      0.46956620
       4721.6200      0.48892240
       4723.0900      0.43327500
       4724.5600      0.39814700
       4726.0300      0.41963770
       4727.5000      0.42908740
       4728.9700      0.45580970
       4730.4400      0.47907470
       4731.9100      0.48380400
       4733.3800      0.45730460
       4734.8500      0.42871060
       4736.3200      0.46155560
       4737.7900      0.45665290
       4739.2600      0.43667150
       4740.7300      0.45713480
       4742.2000      0.45830390
       4743.6700      0.44472260
       4745.1400      0.45274630
       4746.6100      0.44034730
       4748.0800      0.43854630
       4749.5500      0.45075070
       4751.0200      0.43499740
       4752.4900      0.43220520
       4753.9600      0.40960870
       4755.4300      0.38535230
       4756.9000      0.40486090
       4758.3700      0.41350020
       4759.8400      0.41590020
       4761.3100      0.42077030
       4762.7800      0.41288110
       4764.2500      0.39101610
       4765.7200      0.39879430
       4767.1900      0.42681270
       4768.6600      0.43414150
       4770.1300      0.42846380
       4771.6000      0.41643970
       4773.0700      0.39763480
       4774.5400      0.42739470
       4776.0100      0.41891260
       4777.4800      0.38996570
       4778.9500      0.40451410
       4780.4200      0.43443400
       4781.8900      0.41358160
       4783.3600      0.40502520
       4784.8300      0.40675310
       4786.3000      0.41692240
       4787.7700      0.41666660
       4789.2400      0.39505690
       4790.7100      0.37259520
       4792.1800      0.38156190
       4793.6500      0.42282860
       4795.1200      0.41210660
       4796.5900      0.41550820
       4798.0600      0.40945650
       4799.5300      0.38486110
       4801.0000      0.39903040
       4802.4700      0.36826380
       4803.9400      0.32504620
       4805.4100      0.33855510
       4806.8800      0.34019060
       4808.3500      0.34331930
       4809.8200      0.33976710
       4811.2900      0.34502320
       4812.7600      0.33698310
       4814.2300      0.34161030
       4815.7000      0.38182860
       4817.1700      0.37392470
       4818.6400      0.34084990
       4820.1100      0.32427370
       4821.5800      0.32727010
       4823.0500      0.31106730
       4824.5200      0.30166000
       4825.9900      0.30169510
       4827.4600      0.31147210
       4828.9300      0.33691950
       4830.4000      0.32339480
       4831.8700      0.31802190
       4833.3400      0.33687960
       4834.8100      0.35913590
       4836.2800      0.34692970
       4837.7500      0.32966220
       4839.2200      0.34324910
       4840.6900      0.32405140
       4842.1600      0.33385400
       4843.6300      0.35414800
       4845.1000      0.34841440
       4846.5700      0.35263680
       4848.0400      0.35614920
       4849.5100      0.33739330
       4850.9799      0.35029150
       4852.4500      0.36109130
       4853.9200      0.33124400
       4855.3900      0.31990530
       4856.8600      0.36178880
       4858.3300      0.37293340
       4859.8000      0.33837980
       4861.2700      0.31188430
       4862.7400      0.35704420
       4864.2100      0.38419170
       4865.6800      0.35816580
       4867.1500      0.37556330
       4868.6200      0.38934180
       4870.0900      0.38900580
       4871.5600      0.38700740
       4873.0300      0.37413550
       4874.5000      0.38158990
       4875.9700      0.38366730
       4877.4400      0.37398190
       4878.9100      0.39255530
       4880.3800      0.42488410
       4881.8500      0.47546590
       4883.3200      0.49674530
       4884.7900      0.45199520
       4886.2600      0.42943290
       4887.7300      0.42518990
       4889.2000      0.39422700
       4890.6700      0.38588900
       4892.1400      0.41498320
       4893.6100      0.45249760
       4895.0800      0.44337140
       4896.5500      0.43327730
       4898.0200      0.44786000
       4899.4900      0.43259850
       4900.9600      0.43260950
       4902.4300      0.42607020
       4903.9000      0.38483810
       4905.3700      0.38816750
       4906.8400      0.39889310
       4908.3100      0.38700090
       4909.7800      0.40479490
       4911.2500      0.40441350
       4912.7200      0.41459200
       4914.1900      0.41354330
       4915.6600      0.39763510
       4917.1300      0.39468670
       4918.6000      0.37600460
       4920.0700      0.40903240
       4921.5400      0.43800100
       4923.0100      0.39239670
       4924.4800      0.34596630
       4925.9500      0.33640530
       4927.4200      0.34132820
       4928.8900      0.38175330
       4930.3600      0.41762720
       4931.8300      0.38931860
       4933.3000      0.35812430
       4934.7700      0.37838410
       4936.2400      0.39219710
       4937.7100      0.36826740
       4939.1800      0.37782400
       4940.6500      0.35456060
       4942.1200      0.33621310
       4943.5900      0.38314270
       4945.0600      0.39700080
       4946.5300      0.35111500
       4948.0000      0.34305970
       4949.4700      0.35841550
       4950.9400      0.34784360
       4952.4100      0.36651730
       4953.8800      0.37268440
       4955.3500      0.37478360
       4956.8200      0.39877690
       4958.2900      0.40725650
       4959.7600      0.40917250
       4961.2300      0.38744670
       4962.7000      0.38135930
       4964.1700      0.40497470
       4965.6400      0.40463110
       4967.1100      0.41793990
       4968.5800      0.44922630
       4970.0500      0.45611900
       4971.5200      0.44128890
       4972.9900      0.43313620
       4974.4600      0.43779460
       4975.9300      0.44679720
       4977.4000      0.45881580
       4978.8700      0.49685250
       4980.3400      0.54245900
       4981.8100      0.55252630
       4983.2800      0.52464660
       4984.7500      0.48330910
       4986.2200      0.47489050
       4987.6900      0.49059420
       4989.1600      0.49498550
       4990.6300      0.50487760
       4992.1000      0.50507900
       4993.5700      0.52431860
       4995.0400      0.54585720
       4996.5100      0.56766310
       4997.9800      0.56409900
       4999.4500      0.52838120
       5000.9200      0.50336140
       5002.3900      0.51728150
       5003.8600      0.53875630
       5005.3300      0.54800680
       5006.8000      0.54998300
       5008.2700      0.55002920
       5009.7400      0.54628030
       5011.2100      0.53839980
       5012.6800      0.51199590
       5014.1500      0.48761860
       5015.6200      0.50467190
       5017.0900      0.51723100
       5018.5600      0.50457570
       5020.0300      0.50486520
       5021.5000      0.48444640
       5022.9700      0.45372050
       5024.4400      0.47929800
       5025.9100      0.53088000
       5027.3800      0.55062630
       5028.8500      0.52729980
       5030.3200      0.51444260
       5031.7900      0.50280550
       5033.2600      0.47960070
       5034.7300      0.44721880
       5036.2000      0.42224570
       5037.6700      0.42521080
       5039.1400      0.40532020
       5040.6100      0.36480840
       5042.0800      0.36865220
       5043.5500      0.39819090
       5045.0200      0.38134130
       5046.4900      0.35883040
       5047.9600      0.37289690
       5049.4300      0.36028860
       5050.9000      0.33087560
       5052.3700      0.33352620
       5053.8400      0.33996770
       5055.3100      0.32972090
       5056.7800      0.30739390
       5058.2500      0.30539820
       5059.7200      0.31228660
       5061.1900      0.31563690
       5062.6600      0.33672360
       5064.1300      0.31801310
       5065.6000      0.28568550
       5067.0700      0.30314730
       5068.5400      0.30436930
       5070.0100      0.28829430
       5071.4800      0.32421140
       5072.9500      0.34244800
       5074.4200      0.31310000
       5075.8900      0.31420160
       5077.3600      0.32157180
       5078.8300      0.32798480
       5080.3000      0.31381870
       5081.7700      0.29304960
       5083.2400      0.30195300
       5084.7100      0.28007730
       5086.1800      0.26947020
       5087.6500      0.30772670
       5089.1200      0.32150880
       5090.5900      0.29449620
       5092.0600      0.27931080
       5093.5300      0.28320600
       5095.0000      0.29325040
       5096.4700      0.28568120
       5097.9400      0.27204390
       5099.4100      0.28799080
       5100.8800      0.31098790
       5102.3500      0.31169290
       5103.8200      0.32574380
       5105.2900      0.33000310
       5106.7600      0.30946070
       5108.2300      0.30625890
       5109.7000      0.32194700
       5111.1700      0.32045650
       5112.6400      0.31244520
       5114.1100      0.33912360
       5115.5800      0.36536380
       5117.0500      0.36925650
       5118.5200      0.35757590
       5119.9900      0.33935300
       5121.4600      0.36804420
       5122.9300      0.38982020
       5124.4000      0.37222220
       5125.8700      0.38231080
       5127.3400      0.38459220
       5128.8100      0.38212100
       5130.2800      0.40306070
       5131.7500      0.40193070
       5133.2200      0.39965210
       5134.6900      0.43605690
       5136.1600      0.44318260
       5137.6300      0.42786020
       5139.1000      0.43959760
       5140.5700      0.41777400
       5142.0400      0.40867780
       5143.5100      0.41396090
       5144.9800      0.40460530
       5146.4500      0.44090770
       5147.9200      0.46573130
       5149.3900      0.44454430
       5150.8600      0.46890010
       5152.3300      0.47009510
       5153.8000      0.44574950
       5155.2700      0.45426450
       5156.7400      0.47728670
       5158.2100      0.45717300
       5159.6800      0.47431700
       5161.1500      0.50697300
       5162.6200      0.49281440
       5164.0899      0.49835340
       5165.5600      0.47969870
       5167.0300      0.46359870
       5168.5000      0.46081600
       5169.9700      0.43235470
       5171.4400      0.43172710
       5172.9100      0.47757340
       5174.3800      0.49759950
       5175.8500      0.44647040
       5177.3200      0.43064060
       5178.7900      0.43599910
       5180.2600      0.44446310
       5181.7300      0.47970060
       5183.2000      0.48674600
       5184.6700      0.47540240
       5186.1400      0.47656220
       5187.6100      0.46034800
       5189.0800      0.44972440
       5190.5500      0.48538820
       5192.0200      0.51905190
       5193.4900      0.51269790
       5194.9600      0.47885240
       5196.4300      0.47104030
       5197.9000      0.47384110
       5199.3700      0.49985010
       5200.8400      0.50112720
       5202.3100      0.48944950
       5203.7800      0.50435610
       5205.2500      0.49569700
       5206.7200      0.49519340
       5208.1900      0.49052970
       5209.6600      0.49027410
       5211.1300      0.50484380
       5212.6000      0.50622570
       5214.0700      0.50358700
       5215.5400      0.50956860
       5217.0100      0.49664190
       5218.4800      0.47371160
       5219.9500      0.47754080
       5221.4200      0.47829980
       5222.8900      0.51577990
       5224.3600      0.50122820
       5225.8300      0.47718470
       5227.3000      0.47484640
       5228.7700      0.48046980
       5230.2400      0.49124550
       5231.7100      0.48823600
       5233.1800      0.52101500
       5234.6500      0.55190990
       5236.1200      0.51210400
       5237.5900      0.49940620
       5239.0600      0.54958610
       5240.5300      0.54616270
       5242.0000      0.50312950
       5243.4700      0.51253820
       5244.9400      0.54501890
       5246.4100      0.51054000
       5247.8800      0.48243540
       5249.3500      0.49890080
       5250.8200      0.53000520
       5252.2900      0.52972160
       5253.7600      0.50234790
       5255.2300      0.48765030
       5256.7000      0.48716850
       5258.1700      0.50455800
       5259.6400      0.53641440
       5261.1100      0.52965460
       5262.5800      0.52556750
       5264.0500      0.52180530
       5265.5200      0.51841770
       5266.9900      0.50358310
       5268.4600      0.52139280
       5269.9300      0.52878370
       5271.4000      0.52714070
       5272.8700      0.51477240
       5274.3400      0.52168760
       5275.8100      0.55176440
       5277.2800      0.54888670
       5278.7500      0.52197520
       5280.2200      0.52264790
       5281.6900      0.54234560
       5283.1600      0.55857090
       5284.6300      0.52727910
       5286.1000      0.50203260
       5287.5700      0.51280220
       5289.0400      0.53677260
       5290.5100      0.54227730
       5291.9800      0.54439540
       5293.4500      0.57279750
       5294.9200      0.59218730
       5296.3900      0.55744240
       5297.8600      0.51570400
       5299.3300      0.53617690
       5300.8000      0.55852660
       5302.2700      0.56032570
       5303.7400      0.56471640
       5305.2100      0.55618790
       5306.6800      0.51627990
       5308.1500      0.52554970
       5309.6200      0.55199430
       5311.0900      0.53046070
       5312.5600      0.54803400
       5314.0300      0.57517250
       5315.5000      0.55976770
       5316.9700      0.55501210
       5318.4400      0.57050920
       5319.9100      0.58069370
       5321.3800      0.52583810
       5322.8500      0.51162670
       5324.3200      0.54722280
       5325.7900      0.55365410
       5327.2600      0.53764110
       5328.7300      0.54582820
       5330.2000      0.56425200
       5331.6700      0.56756500
       5333.1400      0.54511180
       5334.6100      0.55018070
       5336.0800      0.54618040
       5337.5500      0.53139560
       5339.0200      0.56716650
       5340.4900      0.58845240
       5341.9600      0.57727300
       5343.4300      0.55428190
       5344.9000      0.53541120
       5346.3700      0.53527180
       5347.8400      0.55189500
       5349.3100      0.55495390
       5350.7800      0.53765060
       5352.2500      0.55382590
       5353.7200      0.56867250
       5355.1900      0.56186410
       5356.6600      0.55962470
       5358.1300      0.54970290
       5359.6000      0.52935210
       5361.0700      0.53174850
       5362.5400      0.53218840
       5364.0100      0.52965380
       5365.4800      0.52976670
       5366.9500      0.53991430
       5368.4200      0.55500080
       5369.8900      0.55708270
       5371.3600      0.57304400
       5372.8300      0.54966010
       5374.3000      0.52527210
       5375.7700      0.54126470
       5377.2400      0.55945560
       5378.7100      0.56307550
       5380.1800      0.55971610
       5381.6500      0.54201290
       5383.1200      0.51527510
       5384.5900      0.52958910
       5386.0600      0.54545410
       5387.5300      0.55717920
       5389.0000      0.57201120
       5390.4700      0.56868110
       5391.9400      0.53269970
       5393.4100      0.48648430
       5394.8800      0.50689150
       5396.3500      0.55311410
       5397.8200      0.53439070
       5399.2900      0.52190650
       5400.7600      0.55934000
       5402.2300      0.56130240
       5403.7000      0.55458740
       5405.1700      0.55685520
       5406.6400      0.51136760
       5408.1100      0.51126230
       5409.5800      0.56536490
       5411.0500      0.56667890
       5412.5200      0.56583460
       5413.9900      0.55665650
       5415.4600      0.53677740
       5416.9300      0.54671580
       5418.4000      0.54307320
       5419.8700      0.53407230
       5421.3400      0.53673880
       5422.8100      0.52048130
       5424.2800      0.49242960
       5425.7500      0.48371520
       5427.2200      0.49088080
       5428.6900      0.50732850
       5430.1600      0.49529190
       5431.6300      0.47934840
       5433.1000      0.46046310
       5434.5700      0.45432730
       5436.0400      0.49150650
       5437.5100      0.47761230
       5438.9800      0.44073340
       5440.4500      0.44503150
       5441.9200      0.45513790
       5443.3900      0.45247340
       5444.8600      0.45459660
       5446.3300      0.44844950
       5447.8000      0.43723660
       5449.2700      0.43684810
       5450.7400      0.42900870
       5452.2100      0.41999050
       5453.6800      0.40410130
       5455.1500      0.40618200
       5456.6200      0.41270260
       5458.0900      0.40440580
       5459.5600      0.38349770
       5461.0300      0.41103710
       5462.5000      0.42059610
       5463.9700      0.37490350
       5465.4400      0.36982940
       5466.9100      0.39087900
       5468.3800      0.40512790
       5469.8500      0.42439420
       5471.3200      0.43705120
       5472.7900      0.44039770
       5474.2600      0.43402120
       5475.7300      0.43545370
       5477.2000      0.43378820
       5478.6700      0.41199620
       5480.1400      0.41958690
       5481.6100      0.42021850
       5483.0800      0.42625120
       5484.5500      0.42819260
       5486.0200      0.41642940
       5487.4900      0.44597120
       5488.9600      0.48006900
       5490.4300      0.49581510
       5491.9000      0.47241820
       5493.3700      0.47399010
       5494.8400      0.49548750
       5496.3100      0.49472310
       5497.7800      0.49891560
       5499.2500      0.50692120
       5500.7200      0.49915550
       5502.1900      0.52529730
       5503.6600      0.56382980
       5505.1300      0.54361860
       5506.6000      0.54243550
       5508.0700      0.60537270
       5509.5400      0.59030400
       5511.0100      0.57098080
       5512.4800      0.63752080
       5513.9500      0.64475860
       5515.4200      0.63167570
       5516.8900      0.63263170
       5518.3600      0.64206640
       5519.8300      0.66734030
       5521.3000      0.66984240
       5522.7700      0.67230400
       5524.2400      0.65448380
       5525.7100      0.66408200
       5527.1800      0.70278760
       5528.6500      0.71441080
       5530.1200      0.69390930
       5531.5900      0.71105890
       5533.0600      0.73672440
       5534.5300      0.73064110
       5536.0000      0.72964330
       5537.4700      0.72291960
       5538.9400      0.73469470
       5540.4100      0.75840870
       5541.8800      0.78167100
       5543.3500      0.76319000
       5544.8200      0.73157660
       5546.2900      0.70648160
       5547.7600      0.72588150
       5549.2300      0.67792360
       5550.7000      0.65532140
       5552.1700      0.69659450
       5553.6400      0.69750830
       5555.1100      0.69440980
       5556.5800      0.72179040
       5558.0500      0.74452610
       5559.5200      0.74097670
       5560.9900      0.70140150
       5562.4600      0.69383810
       5563.9300      0.71627270
       5565.4000      0.69621580
       5566.8700      0.67925300
       5568.3400      0.67190130
       5569.8100      0.66459040
       5571.2800      0.61641020
       5572.7500      0.62173130
       5574.2200      0.64089720
       5575.6900      0.62180160
       5577.1600      0.68663470
       5578.6300      0.81762750
       5580.1000      0.74947770
       5581.5700      0.61821260
       5583.0400      0.59000880
       5584.5100      0.58590600
       5585.9800      0.54349390
       5587.4500      0.53041490
       5588.9200      0.53648660
       5590.3900      0.53450130
       5591.8600      0.53123160
       5593.3300      0.49361050
       5594.8000      0.47965320
       5596.2700      0.46942890
       5597.7400      0.45051950
       5599.2100      0.45235250
       5600.6800      0.41754730
       5602.1500      0.40502560
       5603.6200      0.42567710
       5605.0900      0.44817470
       5606.5600      0.45092560
       5608.0300      0.48656480
       5609.5000      0.47318730
       5610.9700      0.42421040
       5612.4400      0.42090420
       5613.9100      0.43362410
       5615.3800      0.43724240
       5616.8500      0.41925760
       5618.3200      0.41427170
       5619.7900      0.45118470
       5621.2600      0.45317160
       5622.7300      0.42738190
       5624.2000      0.41592430
       5625.6700      0.42279670
       5627.1400      0.42468540
       5628.6100      0.45062230
       5630.0800      0.48869360
       5631.5500      0.46984490
       5633.0200      0.45714220
       5634.4900      0.48310530
       5635.9600      0.49659450
       5637.4300      0.48895850
       5638.9000      0.50271360
       5640.3700      0.49792640
       5641.8400      0.52253710
       5643.3100      0.55345390
       5644.7800      0.51055420
       5646.2500      0.49568830
       5647.7200      0.51060800
       5649.1900      0.50237720
       5650.6600      0.47961010
       5652.1300      0.49378530
       5653.6000      0.50916310
       5655.0700      0.48468350
       5656.5400      0.47617300
       5658.0100      0.47182600
       5659.4800      0.47641260
       5660.9500      0.50196810
       5662.4200      0.48592320
       5663.8900      0.44105560
       5665.3600      0.44173920
       5666.8300      0.44924410
       5668.3000      0.40745770
       5669.7700      0.38445070
       5671.2400      0.41879920
       5672.7100      0.40480970
       5674.1800      0.34503480
       5675.6500      0.33721190
       5677.1200      0.36323830
       5678.5900      0.36185970
       5680.0600      0.33865450
       5681.5300      0.32319540
       5683.0000      0.32111810
       5684.4700      0.33032200
       5685.9400      0.31732140
       5687.4100      0.29535200
       5688.8800      0.27664150
       5690.3500      0.29220090
       5691.8200      0.30748280
       5693.2900      0.28374450
       5694.7600      0.25832130
       5696.2300      0.26965430
       5697.7000      0.28362140
       5699.1700      0.27540850
       5700.6400      0.25605240
       5702.1100      0.25226190
       5703.5800      0.25540610
       5705.0500      0.23072970
       5706.5200      0.22031740
       5707.9900      0.24016620
       5709.4600      0.23169540
       5710.9300      0.20972900
       5712.4000      0.23046000
       5713.8700      0.23595190
       5715.3400      0.20792230
       5716.8100      0.21006150
       5718.2800      0.22263050
       5719.7500      0.22782370
       5721.2200      0.21178230
       5722.6900      0.21185960
       5724.1600      0.22031270
       5725.6300      0.20674370
       5727.1000      0.21826090
       5728.5700      0.21944530
       5730.0400      0.22141300
       5731.5100      0.26038790
       5732.9800      0.24344520
       5734.4500      0.20004810
       5735.9200      0.24641770
       5737.3900      0.26069380
       5738.8600      0.21549840
       5740.3300      0.18377420
       5741.8000      0.21859310
       5743.2700      0.23318950
       5744.7400      0.19887230
       5746.2100      0.17891070
       5747.6800      0.18434110
       5749.1500      0.21353920
       5750.6200      0.22287680
       5752.0900      0.19526600
       5753.5600      0.18446680
       5755.0300      0.18061930
       5756.5000      0.18050530
       5757.9700      0.18415820
       5759.4400      0.19341830
       5760.9100      0.20047970
       5762.3800      0.18024470
       5763.8500      0.17537030
       5765.3200      0.19117120
       5766.7900      0.16544000
       5768.2600      0.14229350
       5769.7300      0.18270260
       5771.2000      0.17522050
       5772.6700      0.16509610
       5774.1400      0.17857820
       5775.6100      0.21017290
       5777.0800      0.21320880
       5778.5500      0.17188870
       5780.0200      0.18192370
       5781.4900      0.18559820
       5782.9600      0.18651050
       5784.4300      0.18126370
       5785.9000      0.16870920
       5787.3700      0.17251720
       5788.8400      0.17496150
       5790.3100      0.17775690
       5791.7800      0.17882840
       5793.2500      0.17508130
       5794.7200      0.17099450
       5796.1900      0.17339720
       5797.6600      0.17965820
       5799.1300      0.17567650
       5800.6000      0.18039400
       5802.0700      0.20405950
       5803.5400      0.22334400
       5805.0100      0.19508730
       5806.4800      0.18823420
       5807.9500      0.20347530
       5809.4200      0.19909960
       5810.8900      0.19162590
       5812.3600      0.19321900
       5813.8300      0.19771760
       5815.3000      0.21059000
       5816.7700      0.22127480
       5818.2400      0.22167940
       5819.7100      0.20650740
       5821.1800      0.20874620
       5822.6500      0.21759380
       5824.1200      0.23883560
       5825.5900      0.24225500
       5827.0600      0.24953900
       5828.5300      0.22854240
       5830.0000      0.21966580
       5831.4700      0.28035940
       5832.9400      0.31681170
       5834.4100      0.32127940
       5835.8800      0.30667190
       5837.3500      0.30859220
       5838.8200      0.27962290
       5840.2900      0.27716200
       5841.7600      0.32681470
       5843.2300      0.35287650
       5844.7000      0.34814430
       5846.1700      0.35054240
       5847.6400      0.35809300
       5849.1100      0.36721080
       5850.5800      0.38217300
       5852.0500      0.36616300
       5853.5200      0.35103480
       5854.9900      0.36268300
       5856.4600      0.35085250
       5857.9300      0.34721500
       5859.4000      0.36321110
       5860.8700      0.36036400
       5862.3400      0.37395220
       5863.8100      0.40615210
       5865.2800      0.40853570
       5866.7500      0.38352970
       5868.2200      0.37507430
       5869.6900      0.38871210
       5871.1600      0.40609250
       5872.6300      0.41891520
       5874.1000      0.41138160
       5875.5700      0.39937220
       5877.0400      0.39669030
       5878.5100      0.41497780
       5879.9800      0.45256720
       5881.4500      0.44983860
       5882.9200      0.44057280
       5884.3900      0.46493870
       5885.8600      0.45984310
       5887.3300      0.44376870
       5888.8000      0.42072450
       5890.2700      0.42422140
       5891.7400      0.47655990
       5893.2100      0.45886790
       5894.6800      0.46105640
       5896.1500      0.49217260
       5897.6200      0.47444120
       5899.0900      0.48212140
       5900.5600      0.49657610
       5902.0300      0.51894690
       5903.5000      0.51928040
       5904.9700      0.51220630
       5906.4400      0.51210540
       5907.9100      0.49488960
       5909.3800      0.50641050
       5910.8500      0.49616590
       5912.3200      0.49137800
       5913.7900      0.48429410
       5915.2600      0.47648320
       5916.7300      0.47679120
       5918.2000      0.47401430
       5919.6700      0.47725200
       5921.1400      0.47204710
       5922.6100      0.46809070
       5924.0800      0.47216110
       5925.5500      0.48442210
       5927.0200      0.48747940
       5928.4900      0.46610660
       5929.9600      0.44995130
       5931.4300      0.43748610
       5932.9000      0.46907130
       5934.3700      0.47629500
       5935.8400      0.45166440
       5937.3100      0.48319320
       5938.7800      0.48035970
       5940.2500      0.45331850
       5941.7200      0.43516430
       5943.1900      0.46890510
       5944.6600      0.50328190
       5946.1300      0.46953660
       5947.6000      0.45832330
       5949.0700      0.46689220
       5950.5400      0.46201830
       5952.0100      0.48718180
       5953.4800      0.51301680
       5954.9500      0.48499970
       5956.4200      0.43021520
       5957.8900      0.44975160
       5959.3600      0.46616860
       5960.8300      0.44809710
       5962.3000      0.44233900
       5963.7700      0.45174550
       5965.2400      0.41813730
       5966.7100      0.41524410
       5968.1800      0.44110550
       5969.6500      0.43218870
       5971.1200      0.41735310
       5972.5900      0.43001540
       5974.0600      0.40117170
       5975.5300      0.39088850
       5977.0001      0.43138080
       5978.4700      0.45508560
       5979.9400      0.44141250
       5981.4100      0.41189420
       5982.8800      0.39998910
       5984.3500      0.40495310
       5985.8200      0.39464960
       5987.2900      0.43554690
       5988.7600      0.44159020
       5990.2300      0.40204660
       5991.7000      0.39865990
       5993.1700      0.40414770
       5994.6400      0.41794640
       5996.1100      0.44002110
       5997.5800      0.43324010
       5999.0500      0.42282130
       6000.5200      0.41036580
       6001.9900      0.39773400
       6003.4600      0.39608270
       6004.9300      0.39661850
       6006.4000      0.40046890
       6007.8700      0.41056830
       6009.3400      0.39012840
       6010.8100      0.40743900
       6012.2800      0.41889380
       6013.7500      0.37819850
       6015.2200      0.36955310
       6016.6900      0.37359180
       6018.1600      0.41022310
       6019.6300      0.41353770
       6021.1000      0.39501370
       6022.5700      0.38396170
       6024.0400      0.37687010
       6025.5100      0.38421270
       6026.9800      0.37345270
       6028.4500      0.35563550
       6029.9200      0.35050040
       6031.3900      0.33737960
       6032.8600      0.31467600
       6034.3300      0.33897390
       6035.8000      0.37575180
       6037.2700      0.35468270
       6038.7400      0.31620630
       6040.2100      0.32959010
       6041.6800      0.34580260
       6043.1500      0.34012810
       6044.6200      0.35751680
       6046.0900      0.37976200
       6047.5600      0.34578920
       6049.0300      0.29609930
       6050.5000      0.32612160
       6051.9700      0.33996200
       6053.4400      0.31726130
       6054.9100      0.34024840
       6056.3800      0.34293430
       6057.8500      0.32097510
       6059.3200      0.33584260
       6060.7900      0.34970350
       6062.2600      0.33892110
       6063.7300      0.32460910
       6065.2000      0.31107110
       6066.6700      0.32410330
       6068.1400      0.34907020
       6069.6100      0.34604010
       6071.0800      0.32658030
       6072.5500      0.30667820
       6074.0200      0.31204180
       6075.4900      0.34072300
       6076.9600      0.33447280
       6078.4300      0.30796480
       6079.9000      0.32303580
       6081.3700      0.33548530
       6082.8400      0.32560010
       6084.3100      0.32289710
       6085.7800      0.31635160
       6087.2500      0.32813950
       6088.7200      0.34485300
       6090.1900      0.33471740
       6091.6600      0.31824710
       6093.1300      0.32216240
       6094.6000      0.33230270
       6096.0700      0.32616510
       6097.5400      0.32236730
       6099.0100      0.32906370
       6100.4800      0.32291290
       6101.9500      0.32461460
       6103.4200      0.32399990
       6104.8900      0.31431150
       6106.3600      0.32384370
       6107.8300      0.33001880
       6109.3000      0.33258040
       6110.7700      0.36152180
       6112.2400      0.33443650
       6113.7100      0.33070310
       6115.1800      0.33885670
       6116.6500      0.33827630
       6118.1200      0.34645970
       6119.5900      0.34821870
       6121.0600      0.35913270
       6122.5300      0.36217640
       6124.0000      0.37300530
       6125.4700      0.37318020
       6126.9400      0.34901370
       6128.4100      0.33573110
       6129.8800      0.34212210
       6131.3500      0.35383520
       6132.8200      0.36002010
       6134.2900      0.34850670
       6135.7600      0.35196110
       6137.2300      0.34892390
       6138.7000      0.34678850
       6140.1700      0.33974560
       6141.6400      0.35160090
       6143.1100      0.35004740
       6144.5800      0.33212850
       6146.0500      0.32864270
       6147.5200      0.36102870
       6148.9900      0.38209800
       6150.4600      0.34723300
       6151.9300      0.33084010
       6153.4000      0.33558440
       6154.8700      0.34784650
       6156.3400      0.31998130
       6157.8100      0.30517480
       6159.2800      0.31598180
       6160.7500      0.33453210
       6162.2200      0.33387360
       6163.6900      0.33877180
       6165.1600      0.35622020
       6166.6300      0.35051240
       6168.1000      0.32858730
       6169.5700      0.31543150
       6171.0400      0.32711950
       6172.5100      0.34283060
       6173.9800      0.33167480
       6175.4500      0.34887290
       6176.9200      0.36524330
       6178.3900      0.34021400
       6179.8600      0.32581460
       6181.3300      0.33546450
       6182.8000      0.36461680
       6184.2700      0.37695000
       6185.7400      0.37565040
       6187.2100      0.36153750
       6188.6800      0.35306230
       6190.1500      0.36128120
       6191.6200      0.38953760
       6193.0900      0.40156790
       6194.5600      0.40078730
       6196.0300      0.38849130
       6197.5000      0.39583660
       6198.9700      0.41832900
       6200.4400      0.44027340
       6201.9100      0.42529200
       6203.3800      0.44176490
       6204.8500      0.48096900
       6206.3200      0.47648360
       6207.7900      0.46162550
       6209.2600      0.47665050
       6210.7300      0.49748880
       6212.2000      0.50573980
       6213.6700      0.53008280
       6215.1400      0.55081040
       6216.6100      0.56577280
       6218.0800      0.58032700
       6219.5500      0.60063200
       6221.0200      0.60278860
       6222.4900      0.61634990
       6223.9600      0.65039630
       6225.4300      0.64081420
       6226.9000      0.69744490
       6228.3700      0.76619210
       6229.8400      0.77231760
       6231.3100      0.81677690
       6232.7800      0.83260420
       6234.2500      0.81798520
       6235.7200      0.83483740
       6237.1900      0.88090780
       6238.6600      0.91144590
       6240.1300      0.93289660
       6241.6000      0.93428920
       6243.0700      0.95366070
       6244.5400      0.97845450
       6246.0100      0.97596140
       6247.4800      0.97881200
       6248.9500      0.99728310
       6250.4200       1.0051760
       6251.8900       1.0124270
       6253.3600       1.0304840
       6254.8300       1.0543660
       6256.3000       1.0524460
       6257.7700       1.0399640
       6259.2400       1.0835190
       6260.7100       1.1257760
       6262.1800       1.0898770
       6263.6500       1.0564550
       6265.1200       1.0522890
       6266.5900       1.0470970
       6268.0600       1.0602640
       6269.5300       1.0919090
       6271.0000       1.0893570
       6272.4700       1.0619370
       6273.9400       1.1127380
       6275.4100       1.1466680
       6276.8800       1.1155530
       6278.3500       1.1194040
       6279.8200       1.1150030
       6281.2900       1.1193600
       6282.7600       1.1556410
       6284.2300       1.1354330
       6285.7000       1.1111070
       6287.1700       1.1390330
       6288.6400       1.1667330
       6290.1101       1.1900300
       6291.5800       1.2007310
       6293.0500       1.2162350
       6294.5200       1.2415290
       6295.9900       1.2366640
       6297.4600       1.2462870
       6298.9300       1.2776960
       6300.4000       1.2605720
       6301.8700       1.2772050
       6303.3400       1.3360670
       6304.8100       1.3731970
       6306.2800       1.2930860
       6307.7500       1.2880960
       6309.2200       1.3050570
       6310.6900       1.2488640
       6312.1600       1.2532940
       6313.6300       1.2729170
       6315.1000       1.2919750
       6316.5700       1.2352210
       6318.0400       1.2046950
       6319.5100       1.2422600
       6320.9800       1.2115590
       6322.4500       1.1827230
       6323.9200       1.2005770
       6325.3900       1.1808700
       6326.8600       1.1891070
       6328.3300       1.1992360
       6329.8000       1.1836920
       6331.2700       1.1449580
       6332.7400       1.1371880
       6334.2100       1.1216890
       6335.6800       1.1429690
       6337.1500       1.1444640
       6338.6200       1.1591630
       6340.0900       1.1649880
       6341.5600       1.1287380
       6343.0300       1.0674000
       6344.5000       1.0812370
       6345.9700       1.1151870
       6347.4400       1.0962890
       6348.9100       1.0793420
       6350.3800       1.0651740
       6351.8500       1.0686280
       6353.3200       1.0698080
       6354.7900       1.0133640
       6356.2600      0.99755350
       6357.7300       1.0295700
       6359.2000       1.0517720
       6360.6700       1.0426640
       6362.1400       1.0504600
       6363.6100       1.0463580
       6365.0800      0.99524540
       6366.5500       1.0219190
       6368.0200       1.0339600
       6369.4900      0.99117200
       6370.9600       1.0001870
       6372.4300      0.99324460
       6373.9000      0.99433520
       6375.3700      0.97146710
       6376.8400      0.91444780
       6378.3100      0.93368640
       6379.7800      0.94097010
       6381.2500      0.89166400
       6382.7200      0.84819080
       6384.1900      0.86604930
       6385.6600      0.86486030
       6387.1300      0.83500020
       6388.6000      0.80913340
       6390.0700      0.79014100
       6391.5400      0.81800010
       6393.0100      0.82330980
       6394.4800      0.78597250
       6395.9500      0.81327580
       6397.4200      0.78671470
       6398.8900      0.75384410
       6400.3600      0.77896490
       6401.8300      0.79681720
       6403.3000      0.77186660
       6404.7700      0.69951490
       6406.2400      0.71267960
       6407.7100      0.72223880
       6409.1800      0.69174990
       6410.6500      0.71215470
       6412.1200      0.70128300
       6413.5900      0.71291080
       6415.0600      0.72682480
       6416.5300      0.67016290
       6418.0000      0.62775920
       6419.4700      0.63742170
       6420.9400      0.66675970
       6422.4100      0.66921620
       6423.8800      0.68203160
       6425.3500      0.67060880
       6426.8200      0.62168730
       6428.2900      0.62979370
       6429.7600      0.65675840
       6431.2300      0.64570660
       6432.7000      0.61928010
       6434.1700      0.62908820
       6435.6400      0.63512910
       6437.1100      0.61578590
       6438.5800      0.60640680
       6440.0500      0.60514320
       6441.5200      0.58973380
       6442.9900      0.60423680
       6444.4600      0.62803800
       6445.9300      0.66655400
       6447.4000      0.72783330
       6448.8700      0.71384770
       6450.3400      0.63933840
       6451.8100      0.60126310
       6453.2800      0.59436900
       6454.7500      0.59933200
       6456.2200      0.61387000
       6457.6900      0.59938690
       6459.1600      0.56547430
       6460.6300      0.56389530
       6462.1000      0.58247010
       6463.5700      0.56842240
       6465.0400      0.54219560
       6466.5100      0.55270830
       6467.9800      0.56698690
       6469.4500      0.55384400
       6470.9200      0.54717180
       6472.3900      0.55462300
       6473.8600      0.53845300
       6475.3300      0.54178520
       6476.8000      0.56887000
       6478.2700      0.55201060
       6479.7400      0.54543320
       6481.2100      0.54542610
       6482.6800      0.52364900
       6484.1500      0.52543540
       6485.6200      0.53140980
       6487.0900      0.53122860
       6488.5600      0.53498090
       6490.0300      0.52216660
       6491.5000      0.51286250
       6492.9700      0.54747680
       6494.4400      0.55655560
       6495.9100      0.51154820
       6497.3800      0.48912210
       6498.8500      0.51173870
       6500.3200      0.52890970
       6501.7900      0.49410550
       6503.2600      0.49162040
       6504.7300      0.51509480
       6506.2000      0.50591610
       6507.6700      0.47962210
       6509.1400      0.49888330
       6510.6100      0.52358420
       6512.0800      0.51939970
       6513.5500      0.50048970
       6515.0200      0.49387710
       6516.4900      0.50445250
       6517.9600      0.49616950
       6519.4300      0.46513360
       6520.9000      0.47145390
       6522.3700      0.49036810
       6523.8400      0.49642770
       6525.3100      0.49305920
       6526.7800      0.45753410
       6528.2500      0.46235500
       6529.7200      0.47692960
       6531.1900      0.48235310
       6532.6600      0.47528040
       6534.1300      0.45039970
       6535.6000      0.44462310
       6537.0700      0.46356490
       6538.5400      0.45504050
       6540.0100      0.44687400
       6541.4800      0.43806930
       6542.9500      0.42793230
       6544.4200      0.42091350
       6545.8900      0.43319590
       6547.3600      0.40388230
       6548.8300      0.41724900
       6550.3000      0.43687800
       6551.7700      0.42271240
       6553.2400      0.41967940
       6554.7100      0.39976720
       6556.1800      0.40643780
       6557.6500      0.39880890
       6559.1200      0.41582600
       6560.5900      0.44190320
       6562.0600      0.43375210
       6563.5300      0.40550970
       6565.0000      0.37534450
       6566.4700      0.40766570
       6567.9400      0.42805940
       6569.4100      0.41917880
       6570.8800      0.40735690
       6572.3500      0.39914140
       6573.8200      0.40739710
       6575.2900      0.44929330
       6576.7600      0.47234780
       6578.2300      0.45519730
       6579.7000      0.44453650
       6581.1700      0.42164610
       6582.6400      0.41802730
       6584.1100      0.43156490
       6585.5800      0.43272520
       6587.0500      0.43810610
       6588.5200      0.45915050
       6589.9900      0.51885960
       6591.4600      0.61267810
       6592.9300      0.64360440
       6594.4000      0.63706180
       6595.8700      0.56981060
       6597.3400      0.44515350
       6598.8100      0.40337660
       6600.2800      0.40095530
       6601.7500      0.39311200
       6603.2201      0.41287670
       6604.6900      0.39128340
       6606.1600      0.38686610
       6607.6300      0.40537450
       6609.1000      0.41540290
       6610.5700      0.43146700
       6612.0400      0.43321120
       6613.5100      0.44414600
       6614.9800      0.46823690
       6616.4500      0.44125490
       6617.9200      0.40733100
       6619.3900      0.41005260
       6620.8600      0.38021470
       6622.3300      0.39359240
       6623.8000      0.37508320
       6625.2700      0.36718490
       6626.7400      0.41070770
       6628.2100      0.41382700
       6629.6800      0.37783110
       6631.1500      0.37538900
       6632.6200      0.39980280
       6634.0900      0.38572000
       6635.5600      0.34621130
       6637.0300      0.34475860
       6638.5000      0.37097660
       6639.9700      0.36746420
       6641.4400      0.34023530
       6642.9100      0.35271280
       6644.3800      0.36380930
       6645.8500      0.35103240
       6647.3200      0.35599540
       6648.7900      0.34816860
       6650.2600      0.33571480
       6651.7300      0.34838570
       6653.2000      0.35704320
       6654.6700      0.33729480
       6656.1400      0.29812770
       6657.6100      0.28694650
       6659.0800      0.30350200
       6660.5500      0.31210920
       6662.0200      0.31451810
       6663.4900      0.31838810
       6664.9600      0.33512170
       6666.4300      0.32523210
       6667.9000      0.31266220
       6669.3700      0.32566790
       6670.8400      0.32130570
       6672.3100      0.32315330
       6673.7800      0.35042320
       6675.2500      0.33818130
       6676.7200      0.31064900
       6678.1900      0.31978840
       6679.6600      0.32314830
       6681.1300      0.32468820
       6682.6000      0.33365920
       6684.0700      0.31529810
       6685.5400      0.32835090
       6687.0100      0.34875660
       6688.4800      0.32641990
       6689.9500      0.33062050
       6691.4200      0.33205390
       6692.8900      0.31218450
       6694.3600      0.29257270
       6695.8300      0.27710640
       6697.3000      0.28026630
       6698.7700      0.29507670
       6700.2400      0.29045700
       6701.7100      0.28495840
       6703.1800      0.27845150
       6704.6500      0.27827440
       6706.1200      0.27100560
       6707.5900      0.27540300
       6709.0600      0.29248800
       6710.5300      0.26179650
       6712.0000      0.26260640
       6713.4700      0.30794280
       6714.9400      0.30374450
       6716.4100      0.28225740
       6717.8800      0.28294110
       6719.3500      0.27756300
       6720.8200      0.26032330
       6722.2900      0.26473760
       6723.7600      0.24547490
       6725.2300      0.24438860
       6726.7000      0.29150730
       6728.1700      0.29313300
       6729.6400      0.26721670
       6731.1100      0.26191010
       6732.5800      0.25140030
       6734.0500      0.23972000
       6735.5200      0.25657900
       6736.9900      0.25641470
       6738.4600      0.24746310
       6739.9300      0.23655400
       6741.4000      0.22207740
       6742.8700      0.25098100
       6744.3400      0.27713740
       6745.8100      0.28232520
       6747.2800      0.31948050
       6748.7500      0.32559150
       6750.2200      0.29905240
       6751.6900      0.25102410
       6753.1600      0.20908070
       6754.6300      0.23200000
       6756.1000      0.24831610
       6757.5700      0.23953630
       6759.0400      0.24506500
       6760.5100      0.25808910
       6761.9800      0.27473530
       6763.4500      0.28723560
       6764.9200      0.24855130
       6766.3900      0.22496810
       6767.8600      0.24012560
       6769.3300      0.25772780
       6770.8000      0.26184830
       6772.2700      0.24405090
       6773.7400      0.23262390
       6775.2100      0.22027750
       6776.6800      0.20380520
       6778.1500      0.23706000
       6779.6200      0.23943820
       6781.0900      0.24467820
       6782.5600      0.26394720
       6784.0300      0.25916330
       6785.5000      0.22161950
       6786.9700      0.21946530
       6788.4400      0.23474950
       6789.9100      0.23264890
       6791.3800      0.26736400
       6792.8500      0.26656000
       6794.3200      0.23799800
       6795.7900      0.25691320
       6797.2600      0.24560950
       6798.7300      0.23840950
       6800.2000      0.24784960
       6801.6700      0.23054150
       6803.1400      0.22689080
       6804.6100      0.24834390
       6806.0800      0.25345530
       6807.5500      0.24292360
       6809.0200      0.22181690
       6810.4900      0.21329360
       6811.9600      0.23210500
       6813.4300      0.21268190
       6814.9000      0.22448760
       6816.3700      0.22367180
       6817.8400      0.20907000
       6819.3100      0.20763380
       6820.7800      0.21329560
       6822.2500      0.24125440
       6823.7200      0.23819460
       6825.1900      0.25816340
       6826.6600      0.26271790
       6828.1300      0.24271390
       6829.6000      0.23869610
       6831.0700      0.26591260
       6832.5400      0.24973440
       6834.0100      0.23762940
       6835.4800      0.23987830
       6836.9500      0.23737510
       6838.4200      0.22567550
       6839.8900      0.21809510
       6841.3600      0.21243880
       6842.8300      0.21185210
       6844.3000      0.24266290
       6845.7700      0.25239020
       6847.2400      0.23164060
       6848.7100      0.23488180
       6850.1800      0.22178080
       6851.6500      0.19190650
       6853.1200      0.22403330
       6854.5900      0.25174930
       6856.0600      0.23266210
       6857.5300      0.19567720
       6859.0000      0.19277480
       6860.4700      0.19861670
       6861.9400      0.21830040
       6863.4100      0.22177410
       6864.8800      0.19522640
       6866.3500      0.20524110
       6867.8200      0.21807770
       6869.2900      0.22146410
       6870.7600      0.21650900
       6872.2300      0.19206150
       6873.7000      0.20987970
       6875.1700      0.21829380
       6876.6400      0.19606760
       6878.1100      0.20910010
       6879.5800      0.21694460
       6881.0500      0.19756070
       6882.5200      0.20657530
       6883.9900      0.20954910
       6885.4600      0.20408390
       6886.9300      0.22613660
       6888.4000      0.22000140
       6889.8700      0.21036030
       6891.3400      0.21243120
       6892.8100      0.21534620
       6894.2800      0.20634350
       6895.7500      0.17254710
       6897.2200      0.17185610
       6898.6900      0.20351750
       6900.1600      0.17268210
       6901.6300      0.16090520
       6903.1000      0.19522470
       6904.5700      0.21241710
       6906.0400      0.21147900
       6907.5100      0.19575610
       6908.9800      0.18772510
       6910.4500      0.17617930
       6911.9200      0.19022600
       6913.3900      0.20051870
       6914.8600      0.19107370
       6916.3301      0.18916430
       6917.8000      0.18991340
       6919.2700      0.20696640
       6920.7400      0.20110960
       6922.2100      0.20417360
       6923.6800      0.22756240
       6925.1500      0.20873850
       6926.6200      0.18448910
       6928.0900      0.17692870
       6929.5600      0.16961390
       6931.0300      0.19456770
       6932.5000      0.24010960
       6933.9700      0.24251820
       6935.4400      0.20129320
       6936.9100      0.17436360
       6938.3800      0.19382040
       6939.8500      0.20056120
       6941.3200      0.19502490
       6942.7900      0.19470760
       6944.2600      0.19668780
       6945.7300      0.22063500
       6947.2000      0.21324370
       6948.6700      0.21247220
       6950.1400      0.22228360
       6951.6100      0.21370940
       6953.0800      0.21383190
       6954.5500      0.22833690
       6956.0200      0.23204320
       6957.4900      0.22484480
       6958.9600      0.21435480
       6960.4300      0.21407480
       6961.9000      0.23717980
       6963.3700      0.24647630
       6964.8400      0.23944330
       6966.3100      0.23222540
       6967.7800      0.24271910
       6969.2500      0.24829190
       6970.7200      0.25017580
       6972.1900      0.24636740
       6973.6600      0.22694170
       6975.1300      0.21746900
       6976.6000      0.21967110
       6978.0700      0.21817060
       6979.5400      0.24299830
       6981.0100      0.23836530
       6982.4800      0.24398200
       6983.9500      0.22674340
       6985.4200      0.22013110
       6986.8900      0.25241850
       6988.3600      0.24870280
       6989.8300      0.22706760
       6991.3000      0.23931870
       6992.7700      0.26643960
       6994.2400      0.25583120
       6995.7100      0.23020810
       6997.1800      0.23452380
       6998.6500      0.25307950
       7000.1200      0.23419090
       7001.5900      0.25204310
       7003.0600      0.25754920
       7004.5300      0.24742050
       7006.0000      0.26788370
       7007.4700      0.24982670
       7008.9400      0.24159550
       7010.4100      0.27669660
       7011.8800      0.29599810
       7013.3500      0.30332690
       7014.8200      0.27992060
       7016.2900      0.27257610
       7017.7600      0.26632920
       7019.2300      0.28357610
       7020.7000      0.27800350
       7022.1700      0.27080820
       7023.6400      0.25582040
       7025.1100      0.26104820
       7026.5800      0.26043270
       7028.0500      0.26794970
       7029.5200      0.27096920
       7030.9900      0.26648520
       7032.4600      0.26048600
       7033.9300      0.27001430
       7035.4000      0.26441680
       7036.8700      0.25531740
       7038.3400      0.27155280
       7039.8100      0.26608800
       7041.2800      0.24666120
       7042.7500      0.25495160
       7044.2200      0.26881570
       7045.6900      0.26755600
       7047.1600      0.26211720
       7048.6300      0.26254710
       7050.1000      0.28760760
       7051.5700      0.30380750
       7053.0400      0.29035080
       7054.5100      0.27409740
       7055.9800      0.27811780
       7057.4500      0.26711510
       7058.9200      0.26824590
       7060.3900      0.27806530
       7061.8600      0.26508820
       7063.3300      0.28652940
       7064.8000      0.29846860
       7066.2700      0.26883570
       7067.7400      0.26372210
       7069.2100      0.28165670
       7070.6800      0.28783260
       7072.1500      0.28367570
       7073.6200      0.25777500
       7075.0900      0.28501100
       7076.5600      0.28541550
       7078.0300      0.30055710
       7079.5000      0.29938590
       7080.9700      0.29060740
       7082.4400      0.26246510
       7083.9100      0.24564030
       7085.3800      0.26314510
       7086.8500      0.28169060
       7088.3200      0.30394190
       7089.7900      0.28782600
       7091.2600      0.26847990
       7092.7300      0.27152200
       7094.2000      0.25503500
       7095.6700      0.26820390
       7097.1400      0.30968010
       7098.6100      0.28855960
       7100.0800      0.26304930
       7101.5500      0.26537590
       7103.0200      0.29000060
       7104.4900      0.29510860
       7105.9600      0.30074350
       7107.4300      0.29026820
       7108.9000      0.28455560
       7110.3700      0.29003300
       7111.8400      0.29272430
       7113.3100      0.27318130
       7114.7800      0.29056330
       7116.2500      0.30467710
       7117.7200      0.27928670
       7119.1900      0.30517380
       7120.6600      0.30828350
       7122.1300      0.28091870
       7123.6000      0.29054090
       7125.0700      0.30647460
       7126.5400      0.28275400
       7128.0100      0.24642630
       7129.4800      0.27168330
       7130.9500      0.29620330
       7132.4200      0.31726360
       7133.8900      0.30180030
       7135.3600      0.28790850
       7136.8300      0.30362370
       7138.3000      0.30707090
       7139.7700      0.29561960
       7141.2400      0.29411900
       7142.7100      0.30409530
       7144.1800      0.28943590
       7145.6500      0.30478190
       7147.1200      0.33557490
       7148.5900      0.32185190
       7150.0600      0.27850040
       7151.5300      0.26245040
       7153.0000      0.30864170
       7154.4700      0.29882780
       7155.9400      0.27551870
       7157.4100      0.29500780
       7158.8800      0.30705040
       7160.3500      0.29873810
       7161.8200      0.31905410
       7163.2900      0.32332180
       7164.7600      0.31152880
       7166.2300      0.30472080
       7167.7000      0.28785120
       7169.1700      0.29207730
       7170.6400      0.33042880
       7172.1100      0.32663910
       7173.5800      0.27682360
       7175.0500      0.27830610
       7176.5200      0.30536610
       7177.9900      0.29763740
       7179.4600      0.29569960
       7180.9300      0.30435040
       7182.4000      0.30460840
       7183.8700      0.31429800
       7185.3400      0.30624360
       7186.8100      0.31717920
       7188.2800      0.35163190
       7189.7500      0.35012780
       7191.2200      0.32372870
       7192.6900      0.30467780
       7194.1600      0.32338040
       7195.6300      0.34509570
       7197.1000      0.33337320
       7198.5700      0.32664640
       7200.0400      0.33485190
       7201.5100      0.34569250
       7202.9800      0.35919850
       7204.4500      0.35944360
       7205.9200      0.36621420
       7207.3900      0.36151450
       7208.8600      0.34633600
       7210.3300      0.35411840
       7211.8000      0.34377280
       7213.2700      0.34125750
       7214.7400      0.35559680
       7216.2100      0.35144940
       7217.6800      0.35908480
       7219.1500      0.36750360
       7220.6200      0.38357910
       7222.0900      0.39580220
       7223.5600      0.37305770
       7225.0300      0.35795040
       7226.5000      0.37384660
       7227.9700      0.39411250
       7229.4401      0.39496730
       7230.9100      0.38699100
       7232.3800      0.35239010
       7233.8500      0.35966960
       7235.3200      0.42414210
       7236.7900      0.43883040
       7238.2600      0.38190870
       7239.7300      0.34942650
       7241.2000      0.35269080
       7242.6700      0.37741570
       7244.1400      0.43537970
       7245.6100      0.43346320
       7247.0800      0.41604090
       7248.5500      0.41260930
       7250.0200      0.39965220
       7251.4900      0.40506950
       7252.9600      0.42670970
       7254.4300      0.39628610
       7255.9000      0.37644840
       7257.3700      0.42935160
       7258.8400      0.47274150
       7260.3100      0.45630270
       7261.7800      0.43283620
       7263.2500      0.43998750
       7264.7200      0.43399090
       7266.1900      0.44704260
       7267.6600      0.47400750
       7269.1300      0.45604070
       7270.6000      0.43521060
       7272.0700      0.47937780
       7273.5400      0.47477790
       7275.0100      0.47465800
       7276.4800      0.47508160
       7277.9500      0.47896870
       7279.4200      0.51555000
       7280.8900      0.52218840
       7282.3600      0.51936990
       7283.8300      0.51406890
       7285.3000      0.54563100
       7286.7700      0.57215450
       7288.2400      0.54333410
       7289.7100      0.52455650
       7291.1800      0.51302950
       7292.6500      0.53931700
       7294.1200      0.55503300
       7295.5900      0.57570030
       7297.0600      0.60454700
       7298.5300      0.60308200
       7300.0000      0.56480120
       7301.4700      0.53726080
       7302.9400      0.56737210
       7304.4100      0.57468330
       7305.8800      0.56225280
       7307.3500      0.61651060
       7308.8200      0.61031900
       7310.2900      0.58088110
       7311.7600      0.57281850
       7313.2300      0.60765670
       7314.7000      0.61580180
       7316.1700      0.57727330
       7317.6400      0.53287380
       7319.1100      0.55309010
       7320.5800      0.58743940
       7322.0500      0.59996980
       7323.5200      0.61352970
       7324.9900      0.62689610
       7326.4600      0.62960950
       7327.9300      0.65239480
       7329.4000      0.61634770
       7330.8700      0.59854350
       7332.3400      0.61591870
       7333.8100      0.61331430
       7335.2800      0.63754450
       7336.7500      0.66528670
       7338.2200      0.63199490
       7339.6900      0.62339960
       7341.1600      0.64971550
       7342.6300      0.66510360
       7344.1000      0.59256650
       7345.5700      0.58408550
       7347.0400      0.60450200
       7348.5100      0.57948600
       7349.9800      0.54925360
       7351.4500      0.57193010
       7352.9200      0.55806340
       7354.3900      0.55645810
       7355.8600      0.56110390
       7357.3300      0.52824900
       7358.8000      0.53552660
       7360.2700      0.56627520
       7361.7400      0.54742830
       7363.2100      0.52365270
       7364.6800      0.54004740
       7366.1500      0.56988430
       7367.6200      0.56690960
       7369.0900      0.55744670
       7370.5600      0.47110750
       7372.0300      0.46273410
       7373.5000      0.53809290
       7374.9700      0.53212910
       7376.4400      0.53817580
       7377.9100      0.51331700
       7379.3800      0.45917530
       7380.8500      0.48093110
       7382.3200      0.47291250
       7383.7900      0.46837190
       7385.2600      0.48753730
       7386.7300      0.45933820
       7388.2000      0.45189000
       7389.6700      0.44797180
       7391.1400      0.44128840
       7392.6100      0.44115160
       7394.0800      0.41679780
       7395.5500      0.39827170
       7397.0200      0.43186580
       7398.4900      0.44707770
       7399.9600      0.44896450
       7401.4300      0.45238450
       7402.9000      0.46718360
       7404.3700      0.49940000
       7405.8400      0.46492960
       7407.3100      0.41935460
       7408.7800      0.42801990
       7410.2500      0.41654650
       7411.7200      0.40507680
       7413.1900      0.39523070
       7414.6600      0.39709840
       7416.1300      0.37722710
       7417.6000      0.38178890
