Units are: observed wavelength (Ang), observed flux (10^-15 erg/s/cm^2/Ang)
       3476.0000     -0.28835230
       3477.4700      0.31985660
       3478.9400      0.40665460
       3480.4100       1.0029790
       3481.8800      0.58117590
       3483.3500      0.51295610
       3484.8200      0.56881690
       3486.2900      0.41066590
       3487.7600      0.66416220
       3489.2300      0.25040140
       3490.7000      0.17928640
       3492.1700      0.47051400
       3493.6400      0.40725190
       3495.1100     -0.17283850
       3496.5800     -0.32298240
       3498.0500      0.21390970
       3499.5200      0.44464210
       3500.9900      0.58724960
       3502.4600      0.56747960
       3503.9300      0.40668550
       3505.4000      0.78457570
       3506.8700      0.75424340
       3508.3400      0.45375270
       3509.8100      0.42917540
       3511.2800      0.64688990
       3512.7500      0.59508850
       3514.2200      0.12644440
       3515.6900      0.32207890
       3517.1600      0.69369590
       3518.6300      0.21517430
       3520.1000      0.28339510
       3521.5700      0.71933910
       3523.0400      0.45986650
       3524.5100      0.39349250
       3525.9800      0.76675210
       3527.4500      0.64452800
       3528.9200     0.074126940
       3530.3900      0.19258880
       3531.8599      0.59351170
       3533.3300      0.52303000
       3534.8000      0.39900220
       3536.2700      0.56163640
       3537.7400       1.0608530
       3539.2100       1.0985920
       3540.6800      0.61892100
       3542.1500      0.47486160
       3543.6200      0.63597120
       3545.0900      0.31466540
       3546.5600    0.0085832070
       3548.0300      0.76820560
       3549.5000       1.0299360
       3550.9700      0.64362300
       3552.4400      0.39273100
       3553.9100      0.43579910
       3555.3800      0.52387650
       3556.8500      0.50431140
       3558.3200      0.47641460
       3559.7900      0.26425170
       3561.2600      0.15142400
       3562.7300     0.099525030
       3564.2000    -0.045022500
       3565.6700      0.17879210
       3567.1400      0.10210880
       3568.6100      0.50036650
       3570.0800      0.73045010
       3571.5500      0.46587260
       3573.0200      0.68886010
       3574.4900      0.51115320
       3575.9600      0.34753930
       3577.4300      0.51319970
       3578.9000      0.67407060
       3580.3700      0.60643620
       3581.8400      0.41319750
       3583.3100      0.45545310
       3584.7800      0.83400860
       3586.2500      0.93155560
       3587.7200      0.42117370
       3589.1900      0.36374510
       3590.6600      0.58824560
       3592.1300      0.47479580
       3593.6000      0.27529710
       3595.0700     0.078996370
       3596.5400      0.25145350
       3598.0100      0.79709200
       3599.4800      0.61236380
       3600.9500      0.47703550
       3602.4200      0.60809860
       3603.8900      0.33397780
       3605.3600      0.28498480
       3606.8300      0.54831780
       3608.3000      0.51876290
       3609.7700      0.13824290
       3611.2400     0.088199290
       3612.7100      0.38983020
       3614.1800      0.51580300
       3615.6500      0.51149150
       3617.1200      0.46181930
       3618.5900      0.44465950
       3620.0600      0.71504370
       3621.5300      0.56520550
       3623.0000      0.33527740
       3624.4700      0.63941660
       3625.9400      0.79105020
       3627.4100      0.71215860
       3628.8800      0.39895310
       3630.3500      0.47415300
       3631.8200      0.53818000
       3633.2900      0.44916140
       3634.7600      0.15992940
       3636.2300      0.26317750
       3637.7000      0.29020700
       3639.1700      0.39767410
       3640.6400      0.57432700
       3642.1100      0.34799770
       3643.5800      0.20608370
       3645.0500      0.37235250
       3646.5200      0.24392040
       3647.9900      0.34606780
       3649.4600      0.40345920
       3650.9300      0.66455030
       3652.4000      0.79715000
       3653.8700      0.52936920
       3655.3400      0.53489890
       3656.8100      0.33681530
       3658.2800      0.32748330
       3659.7500      0.52946950
       3661.2200      0.50568650
       3662.6900      0.52632660
       3664.1600      0.57909380
       3665.6300      0.89930520
       3667.1000      0.93384000
       3668.5700      0.52852090
       3670.0400      0.57162870
       3671.5100      0.66015570
       3672.9800      0.66986820
       3674.4500      0.71978370
       3675.9200      0.87327670
       3677.3900      0.67376950
       3678.8600      0.35626610
       3680.3300      0.34033710
       3681.8000      0.45690980
       3683.2700      0.55279080
       3684.7400      0.59593910
       3686.2100      0.52011280
       3687.6800      0.44128480
       3689.1500      0.62722740
       3690.6200      0.86944310
       3692.0900      0.76828100
       3693.5600      0.40311940
       3695.0300      0.56545930
       3696.5000      0.72743760
       3697.9700      0.70717350
       3699.4400      0.55756530
       3700.9100      0.79562450
       3702.3800      0.85123440
       3703.8500      0.65621020
       3705.3200      0.56997130
       3706.7900      0.63539110
       3708.2600      0.75088160
       3709.7300      0.61552220
       3711.2000      0.53008230
       3712.6700      0.70139770
       3714.1400      0.77835860
       3715.6100      0.56206790
       3717.0800      0.52875280
       3718.5500      0.64036010
       3720.0200      0.73558220
       3721.4900      0.53902580
       3722.9600      0.52191100
       3724.4300      0.95322500
       3725.9000      0.92121830
       3727.3700      0.49724160
       3728.8400      0.43457710
       3730.3100      0.55873170
       3731.7800      0.76075480
       3733.2500      0.60658430
       3734.7200      0.48697050
       3736.1900      0.71203840
       3737.6600      0.62067070
       3739.1300      0.65393170
       3740.6000      0.93759570
       3742.0700       1.2157860
       3743.5400       1.0593450
       3745.0100      0.72365480
       3746.4800      0.77430900
       3747.9500      0.76951200
       3749.4200      0.75501540
       3750.8900      0.81524310
       3752.3600      0.70294520
       3753.8300      0.49287880
       3755.3000      0.64061120
       3756.7700      0.92586970
       3758.2400      0.80525510
       3759.7100      0.64600050
       3761.1800      0.69569630
       3762.6500      0.72687770
       3764.1200      0.71284290
       3765.5900      0.68185750
       3767.0600      0.60363160
       3768.5300      0.62536200
       3770.0000      0.54096470
       3771.4700      0.57267370
       3772.9400      0.67796620
       3774.4100      0.69914900
       3775.8800      0.78252130
       3777.3500      0.58916830
       3778.8200      0.38357400
       3780.2900      0.39512310
       3781.7600      0.45739310
       3783.2300      0.70668330
       3784.7000      0.70671020
       3786.1700      0.57855110
       3787.6400      0.60916110
       3789.1100      0.55066370
       3790.5800      0.46178000
       3792.0500      0.41360470
       3793.5200      0.36246390
       3794.9900      0.39463510
       3796.4600      0.36459760
       3797.9300      0.35400680
       3799.4000      0.35033860
       3800.8700      0.39827430
       3802.3400      0.40764280
       3803.8100      0.40767510
       3805.2800      0.37396230
       3806.7500      0.33904170
       3808.2200      0.37000220
       3809.6900      0.33580510
       3811.1600      0.28968540
       3812.6300      0.39134960
       3814.1000      0.34703410
       3815.5700      0.27502450
       3817.0400      0.35573920
       3818.5100      0.50301860
       3819.9800      0.36344360
       3821.4500      0.16713050
       3822.9200      0.29379760
       3824.3900      0.22686000
       3825.8600      0.31772460
       3827.3300      0.42566900
       3828.8000      0.43504770
       3830.2700      0.50119540
       3831.7400      0.27245550
       3833.2100      0.26119740
       3834.6800      0.53293700
       3836.1500      0.54271450
       3837.6200      0.44872680
       3839.0900      0.47762860
       3840.5600      0.34427750
       3842.0300      0.37225130
       3843.5000      0.55052300
       3844.9699      0.48406020
       3846.4400      0.39120980
       3847.9100      0.39849010
       3849.3800      0.62031950
       3850.8500      0.55716190
       3852.3200      0.37604870
       3853.7900      0.52091010
       3855.2600      0.58936260
       3856.7300      0.63028260
       3858.2000      0.70300310
       3859.6700      0.59078010
       3861.1400      0.61743930
       3862.6100      0.71466770
       3864.0800      0.68276610
       3865.5500      0.70532160
       3867.0200      0.71703960
       3868.4900      0.69900690
       3869.9600      0.94701830
       3871.4300      0.78892760
       3872.9000      0.71788440
       3874.3700      0.88247310
       3875.8400      0.72192700
       3877.3100      0.68994390
       3878.7800      0.80331730
       3880.2500      0.77246270
       3881.7200      0.68614760
       3883.1900      0.73310240
       3884.6600      0.88824680
       3886.1300      0.87547330
       3887.6000      0.83340900
       3889.0700      0.89957130
       3890.5400      0.79404360
       3892.0100      0.78140260
       3893.4800      0.88178120
       3894.9500      0.82896170
       3896.4200      0.86935250
       3897.8900      0.96212940
       3899.3600      0.88924950
       3900.8300      0.77904420
       3902.3000      0.91964680
       3903.7700      0.90694170
       3905.2400      0.90865080
       3906.7100       1.0710500
       3908.1800       1.0832500
       3909.6500      0.99077260
       3911.1200      0.92755680
       3912.5900      0.80716580
       3914.0600      0.86646260
       3915.5300       1.0512110
       3917.0000       1.0915260
       3918.4700       1.1150490
       3919.9400       1.1257380
       3921.4100       1.0065360
       3922.8800       1.0840750
       3924.3500       1.0676080
       3925.8200       1.1071620
       3927.2900       1.2067800
       3928.7600       1.1799740
       3930.2300       1.0655800
       3931.7000       1.2350600
       3933.1700       1.3858610
       3934.6400       1.1817110
       3936.1100       1.0583360
       3937.5800       1.2586680
       3939.0500       1.3879710
       3940.5200       1.2923600
       3941.9900       1.2929640
       3943.4600       1.3460300
       3944.9300       1.3279670
       3946.4000       1.3693550
       3947.8700       1.2320390
       3949.3400       1.0713940
       3950.8100       1.1525120
       3952.2800       1.3027520
       3953.7500       1.2822570
       3955.2200       1.2629800
       3956.6900       1.4084380
       3958.1600       1.4097160
       3959.6300       1.4303320
       3961.1000       1.4186050
       3962.5700       1.3601240
       3964.0400       1.4235000
       3965.5100       1.3492630
       3966.9800       1.3183410
       3968.4500       1.3949470
       3969.9200       1.4631320
       3971.3900       1.4754710
       3972.8600       1.5831420
       3974.3300       1.5349380
       3975.8000       1.4433330
       3977.2700       1.5364580
       3978.7400       1.5419280
       3980.2100       1.5384830
       3981.6800       1.6075860
       3983.1500       1.7283340
       3984.6200       1.5715560
       3986.0900       1.4211630
       3987.5600       1.5338080
       3989.0300       1.4538400
       3990.5000       1.4894150
       3991.9700       1.5849790
       3993.4400       1.4157470
       3994.9100       1.5441390
       3996.3800       1.5896180
       3997.8500       1.5225480
       3999.3200       1.4698030
       4000.7900       1.4799930
       4002.2600       1.4649370
       4003.7300       1.4208850
       4005.2000       1.4583010
       4006.6700       1.3850180
       4008.1400       1.4936910
       4009.6100       1.5587860
       4011.0800       1.3835270
       4012.5500       1.3526460
       4014.0200       1.4438790
       4015.4900       1.4153340
       4016.9600       1.5351980
       4018.4300       1.5864080
       4019.9000       1.5071470
       4021.3700       1.4963660
       4022.8400       1.4293680
       4024.3100       1.4367830
       4025.7800       1.3345630
       4027.2500       1.3017920
       4028.7200       1.4432030
       4030.1900       1.4865810
       4031.6600       1.4009560
       4033.1300       1.4203790
       4034.6000       1.3928570
       4036.0700       1.3923870
       4037.5400       1.3821940
       4039.0100       1.4168890
       4040.4800       1.4443190
       4041.9500       1.4657870
       4043.4200       1.3745080
       4044.8900       1.2699330
       4046.3600       1.2989600
       4047.8300       1.3804170
       4049.3000       1.2898030
       4050.7700       1.2591060
       4052.2400       1.2848520
       4053.7100       1.3151610
       4055.1800       1.3092030
       4056.6500       1.1772740
       4058.1200       1.1756610
       4059.5900       1.4379570
       4061.0600       1.4707570
       4062.5300       1.2202300
       4064.0000       1.2614630
       4065.4700       1.2568650
       4066.9400       1.1439100
       4068.4100       1.2071070
       4069.8800       1.3362290
       4071.3500       1.3178480
       4072.8200       1.2271360
       4074.2900       1.2451190
       4075.7600       1.2482290
       4077.2300       1.1886420
       4078.7000       1.1710810
       4080.1700       1.1719920
       4081.6400       1.0850810
       4083.1100       1.1088810
       4084.5800       1.1807470
       4086.0500       1.1277540
       4087.5200       1.0922870
       4088.9900       1.1209970
       4090.4600       1.1724200
       4091.9300       1.1344950
       4093.4000       1.0566500
       4094.8700       1.0479130
       4096.3400       1.0767860
       4097.8100       1.0974080
       4099.2800       1.0846580
       4100.7500       1.0058470
       4102.2200       1.0625610
       4103.6900       1.1151300
       4105.1600       1.1280150
       4106.6300       1.1073560
       4108.1000      0.99946400
       4109.5700      0.98696880
       4111.0400      0.89326420
       4112.5100      0.90160310
       4113.9800      0.93853490
       4115.4500      0.89539120
       4116.9200      0.86421050
       4118.3900      0.82958640
       4119.8600      0.82239980
       4121.3300      0.95734350
       4122.8000      0.92852870
       4124.2700      0.76068170
       4125.7400      0.74795990
       4127.2100      0.90411140
       4128.6800      0.88346680
       4130.1500      0.72631040
       4131.6200      0.76449430
       4133.0900      0.82476940
       4134.5600      0.80325210
       4136.0300      0.80412270
       4137.5000      0.83661280
       4138.9700      0.80078160
       4140.4400      0.80462980
       4141.9100      0.76355660
       4143.3800      0.68927270
       4144.8500      0.72066560
       4146.3200      0.81356080
       4147.7900      0.75662860
       4149.2600      0.72466150
       4150.7300      0.69708350
       4152.2000      0.65382180
       4153.6700      0.73848530
       4155.1400      0.77201660
       4156.6100      0.73492570
       4158.0799      0.63613640
       4159.5500      0.66434200
       4161.0200      0.63833890
       4162.4900      0.76242730
       4163.9600      0.72896950
       4165.4300      0.65216070
       4166.9000      0.73306070
       4168.3700      0.70838430
       4169.8400      0.55211100
       4171.3100      0.57480350
       4172.7800      0.64217000
       4174.2500      0.68765970
       4175.7200      0.67295930
       4177.1900      0.61483920
       4178.6600      0.57599490
       4180.1300      0.69153290
       4181.6000      0.71232940
       4183.0700      0.60620610
       4184.5400      0.60550090
       4186.0100      0.72119550
       4187.4800      0.66603650
       4188.9500      0.53439030
       4190.4200      0.66725960
       4191.8900      0.76258310
       4193.3600      0.62431580
       4194.8300      0.57586920
       4196.3000      0.73242340
       4197.7700      0.70696900
       4199.2400      0.68230860
       4200.7100      0.67205150
       4202.1800      0.67470750
       4203.6500      0.63997390
       4205.1200      0.61655970
       4206.5900      0.78819670
       4208.0600      0.75269900
       4209.5300      0.63080260
       4211.0000      0.65593880
       4212.4700      0.66674510
       4213.9400      0.71585840
       4215.4100      0.70905510
       4216.8800      0.78623210
       4218.3500      0.78775610
       4219.8200      0.72500370
       4221.2900      0.82579540
       4222.7600      0.83608840
       4224.2300      0.75409250
       4225.7000      0.75752200
       4227.1700      0.76647070
       4228.6400      0.75310990
       4230.1100      0.79609600
       4231.5800      0.71213640
       4233.0500      0.72754500
       4234.5200      0.74566290
       4235.9900      0.71867200
       4237.4600      0.70326800
       4238.9300      0.72695240
       4240.4000      0.73823030
       4241.8700      0.64137550
       4243.3400      0.68919590
       4244.8100      0.72352030
       4246.2800      0.70403340
       4247.7500      0.69895210
       4249.2200      0.61247260
       4250.6900      0.60862790
       4252.1600      0.74752600
       4253.6300      0.81522700
       4255.1000      0.67709940
       4256.5700      0.65003420
       4258.0400      0.76880510
       4259.5100      0.79604670
       4260.9800      0.82125460
       4262.4500      0.76734810
       4263.9200      0.70529630
       4265.3900      0.78851830
       4266.8600      0.81303200
       4268.3300      0.73894100
       4269.8000      0.71591690
       4271.2700      0.67086040
       4272.7400      0.67505410
       4274.2100      0.78317900
       4275.6800      0.70491390
       4277.1500      0.65624740
       4278.6200      0.71653050
       4280.0900      0.67277870
       4281.5600      0.71429320
       4283.0300      0.82462750
       4284.5000      0.85903020
       4285.9700      0.84008750
       4287.4400      0.88134230
       4288.9100      0.91998260
       4290.3800      0.78416830
       4291.8500      0.68504170
       4293.3200      0.76196090
       4294.7900      0.81839900
       4296.2600      0.82236620
       4297.7300      0.76680110
       4299.2000      0.77284590
       4300.6700      0.84849820
       4302.1400      0.78854370
       4303.6100      0.69128760
       4305.0800      0.78974850
       4306.5500      0.89270620
       4308.0200      0.86032470
       4309.4900      0.78072270
       4310.9600      0.76048710
       4312.4300      0.73911140
       4313.9000      0.70769990
       4315.3700      0.71675280
       4316.8400      0.73907860
       4318.3100      0.79589810
       4319.7800      0.82674970
       4321.2500      0.77385400
       4322.7200      0.75249200
       4324.1900      0.74515940
       4325.6600      0.74729250
       4327.1300      0.71323350
       4328.6000      0.77885500
       4330.0700      0.91190970
       4331.5400      0.92388740
       4333.0100      0.85222450
       4334.4800      0.85962490
       4335.9500      0.84103520
       4337.4200      0.82306870
       4338.8900      0.87020560
       4340.3600      0.83843470
       4341.8300      0.92102470
       4343.3000      0.99585680
       4344.7700      0.89572890
       4346.2400      0.80106790
       4347.7100      0.74391470
       4349.1800      0.74618030
       4350.6500      0.83997220
       4352.1200      0.90309510
       4353.5900      0.90047870
       4355.0600      0.74011310
       4356.5300      0.65447730
       4358.0000      0.78066720
       4359.4700      0.88717310
       4360.9400      0.82043940
       4362.4100      0.81806080
       4363.8800      0.85826920
       4365.3500      0.84154530
       4366.8200      0.84641360
       4368.2900      0.84449170
       4369.7600      0.78009740
       4371.2300      0.81249050
       4372.7000      0.70416180
       4374.1700      0.75961360
       4375.6400      0.84579810
       4377.1100      0.86791070
       4378.5800      0.88899380
       4380.0500      0.82561220
       4381.5200      0.85709700
       4382.9900      0.81687010
       4384.4600      0.85329520
       4385.9300      0.87292460
       4387.4000      0.77781210
       4388.8700      0.73034720
       4390.3400      0.71477520
       4391.8100      0.75923660
       4393.2800      0.82196920
       4394.7500      0.80477400
       4396.2200      0.76756040
       4397.6900      0.77407590
       4399.1600      0.76052890
       4400.6300      0.72165410
       4402.1000      0.73149170
       4403.5700      0.76352880
       4405.0400      0.79801630
       4406.5100      0.79651890
       4407.9800      0.73338570
       4409.4500      0.73556520
       4410.9200      0.75385450
       4412.3900      0.69824370
       4413.8600      0.70101770
       4415.3300      0.71210030
       4416.8000      0.68738970
       4418.2700      0.66779470
       4419.7400      0.69252310
       4421.2100      0.74993430
       4422.6800      0.72845380
       4424.1500      0.69924370
       4425.6200      0.68040900
       4427.0900      0.64992580
       4428.5600      0.73263980
       4430.0300      0.81996700
       4431.5000      0.80314360
       4432.9700      0.78213210
       4434.4400      0.74333330
       4435.9100      0.76801800
       4437.3800      0.81065750
       4438.8500      0.78147610
       4440.3200      0.78799550
       4441.7900      0.84214140
       4443.2600      0.73870330
       4444.7300      0.69764710
       4446.2000      0.79747270
       4447.6700      0.88662250
       4449.1400      0.89849510
       4450.6100      0.86538800
       4452.0800      0.81204520
       4453.5500      0.78236720
       4455.0200      0.84738370
       4456.4900      0.96628500
       4457.9600      0.95234450
       4459.4300      0.86699550
       4460.9000      0.81161070
       4462.3700      0.91673140
       4463.8400      0.97063130
       4465.3100      0.96242010
       4466.7800      0.98264440
       4468.2500      0.94262390
       4469.7200      0.83135320
       4471.1899      0.88482020
       4472.6600       1.0494740
       4474.1300       1.0451630
       4475.6000       1.0302880
       4477.0700       1.0696560
       4478.5400       1.0385430
       4480.0100      0.99998310
       4481.4800       1.0922650
       4482.9500       1.0546080
       4484.4200       1.0155870
       4485.8900       1.0438880
       4487.3600      0.99417190
       4488.8300      0.99060630
       4490.3000       1.1009910
       4491.7700       1.1733100
       4493.2400       1.1990980
       4494.7100       1.1379610
       4496.1800       1.0722480
       4497.6500       1.1168250
       4499.1200       1.1611520
       4500.5900       1.1479040
       4502.0600       1.0957670
       4503.5300       1.0599350
       4505.0000       1.1706230
       4506.4700       1.2658990
       4507.9400       1.2087770
       4509.4100       1.2323770
       4510.8800       1.2502420
       4512.3500       1.1732590
       4513.8200       1.1558410
       4515.2900       1.2060480
       4516.7600       1.2557700
       4518.2300       1.3095790
       4519.7000       1.2839260
       4521.1700       1.2244090
       4522.6400       1.2430930
       4524.1100       1.2108660
       4525.5800       1.2302080
       4527.0500       1.3356290
       4528.5200       1.3639420
       4529.9900       1.3769640
       4531.4600       1.3893470
       4532.9300       1.3590080
       4534.4000       1.3754280
       4535.8700       1.3752760
       4537.3400       1.3699610
       4538.8100       1.4540730
       4540.2800       1.4996220
       4541.7500       1.5135150
       4543.2200       1.4709890
       4544.6900       1.3847100
       4546.1600       1.4755270
       4547.6300       1.5751360
       4549.1000       1.5996050
       4550.5700       1.6267570
       4552.0400       1.6296060
       4553.5100       1.6382610
       4554.9800       1.6006090
       4556.4500       1.5906750
       4557.9200       1.6470450
       4559.3900       1.6409840
       4560.8600       1.6149560
       4562.3300       1.7225100
       4563.8000       1.8058430
       4565.2700       1.7395730
       4566.7400       1.7563070
       4568.2100       1.8002050
       4569.6800       1.7742070
       4571.1500       1.8245060
       4572.6200       1.9085220
       4574.0900       1.8722170
       4575.5600       1.8648310
       4577.0300       1.8556120
       4578.5000       1.8489570
       4579.9700       1.9097430
       4581.4400       1.9672600
       4582.9100       2.0012490
       4584.3800       2.0470600
       4585.8500       2.0762960
       4587.3200       2.0143130
       4588.7900       1.9929440
       4590.2600       2.0177630
       4591.7300       2.0535810
       4593.2000       2.0849820
       4594.6700       2.0138860
       4596.1400       2.0753160
       4597.6100       2.1219390
       4599.0800       2.0717810
       4600.5500       2.1039080
       4602.0200       2.1080400
       4603.4900       2.0752930
       4604.9600       2.0756840
       4606.4300       2.1246690
       4607.9000       2.1950160
       4609.3700       2.1626630
       4610.8400       2.0601920
       4612.3100       2.0796060
       4613.7800       2.0969610
       4615.2500       2.0937210
       4616.7200       2.0837760
       4618.1900       2.0463920
       4619.6600       1.9747680
       4621.1300       2.0336680
       4622.6000       2.0995850
       4624.0700       2.0727210
       4625.5400       1.9714150
       4627.0100       1.9242240
       4628.4800       1.9110650
       4629.9500       2.0054620
       4631.4200       2.0363250
       4632.8900       1.9612690
       4634.3600       1.9384880
       4635.8300       1.9366870
       4637.3000       1.8590700
       4638.7700       1.8909180
       4640.2400       1.9593830
       4641.7100       1.9457220
       4643.1800       1.9381310
       4644.6500       1.9238960
       4646.1200       1.9408400
       4647.5900       1.9553550
       4649.0600       1.8922310
       4650.5300       1.8084920
       4652.0000       1.7777430
       4653.4700       1.8192540
       4654.9400       1.7064530
       4656.4100       1.6724630
       4657.8800       1.7615950
       4659.3500       1.7931880
       4660.8200       1.8022420
       4662.2900       1.7661200
       4663.7600       1.7007870
       4665.2300       1.6608450
       4666.7000       1.5519240
       4668.1700       1.5269650
       4669.6400       1.6554080
       4671.1100       1.7247580
       4672.5800       1.6132680
       4674.0500       1.4968730
       4675.5200       1.5175620
       4676.9900       1.5560140
       4678.4600       1.5838880
       4679.9300       1.6023350
       4681.4000       1.5733460
       4682.8700       1.5003580
       4684.3400       1.4586060
       4685.8100       1.5079710
       4687.2800       1.5144140
       4688.7500       1.5070830
       4690.2200       1.5570620
       4691.6900       1.5226550
       4693.1600       1.4407440
       4694.6300       1.4321180
       4696.1000       1.3881420
       4697.5700       1.3524400
       4699.0400       1.4255340
       4700.5100       1.4169910
       4701.9800       1.3242370
       4703.4500       1.3797300
       4704.9200       1.4525010
       4706.3900       1.3226850
       4707.8600       1.2102960
       4709.3300       1.2608310
       4710.8000       1.3471680
       4712.2700       1.3603570
       4713.7400       1.2444390
       4715.2100       1.2559460
       4716.6800       1.2986500
       4718.1500       1.2765930
       4719.6200       1.3398850
       4721.0900       1.4309130
       4722.5600       1.3723380
       4724.0300       1.2592370
       4725.5000       1.2908130
       4726.9700       1.3589260
       4728.4400       1.3972910
       4729.9100       1.3854820
       4731.3800       1.3924370
       4732.8500       1.3656270
       4734.3200       1.2720430
       4735.7900       1.2913190
       4737.2600       1.3968540
       4738.7300       1.3706320
       4740.2000       1.3544720
       4741.6700       1.3806170
       4743.1400       1.4016140
       4744.6100       1.3819240
       4746.0800       1.3014370
       4747.5500       1.2811790
       4749.0200       1.3433650
       4750.4900       1.2907110
       4751.9600       1.2355360
       4753.4300       1.1993600
       4754.9000       1.2559500
       4756.3700       1.2819620
       4757.8400       1.2453260
       4759.3100       1.1660870
       4760.7800       1.2306750
       4762.2500       1.3032340
       4763.7200       1.2195950
       4765.1900       1.2465830
       4766.6600       1.2881190
       4768.1300       1.2306610
       4769.6000       1.2037050
       4771.0700       1.1870590
       4772.5400       1.1721910
       4774.0100       1.1742900
       4775.4800       1.1269590
       4776.9500       1.1174760
       4778.4200       1.1610490
       4779.8900       1.1397630
       4781.3600       1.1221020
       4782.8300       1.1831150
       4784.2999       1.2182510
       4785.7700       1.1668780
       4787.2400       1.1474670
       4788.7100       1.1549580
       4790.1800       1.1832300
       4791.6500       1.1590170
       4793.1200       1.0540560
       4794.5900       1.0970530
       4796.0600       1.1289090
       4797.5300       1.1409230
       4799.0000       1.1391580
       4800.4700       1.1484100
       4801.9400       1.1956550
       4803.4100       1.2249630
       4804.8800       1.1935580
       4806.3500       1.1325340
       4807.8200       1.1274440
       4809.2900       1.2226320
       4810.7600       1.2300360
       4812.2300       1.2365220
       4813.7000       1.2651270
       4815.1700       1.2315690
       4816.6400       1.2452420
       4818.1100       1.2948950
       4819.5800       1.2148750
       4821.0500       1.2029350
       4822.5200       1.3461880
       4823.9900       1.4333100
       4825.4600       1.3864110
       4826.9300       1.3004710
       4828.4000       1.3274840
       4829.8700       1.4072450
       4831.3400       1.3891590
       4832.8100       1.3661300
       4834.2800       1.3088110
       4835.7500       1.3390410
       4837.2200       1.4134230
       4838.6900       1.3669120
       4840.1600       1.3519090
       4841.6300       1.3897200
       4843.1000       1.3814900
       4844.5700       1.3062060
       4846.0400       1.3043780
       4847.5100       1.3569610
       4848.9800       1.4007760
       4850.4500       1.3458300
       4851.9200       1.2632110
       4853.3900       1.1740370
       4854.8600       1.1036930
       4856.3300       1.2412280
       4857.8000       1.2888110
       4859.2700       1.2381510
       4860.7400       1.2087030
       4862.2100       1.2151710
       4863.6800       1.2541180
       4865.1500       1.2481590
       4866.6200       1.2455170
       4868.0900       1.2106590
       4869.5600       1.2174030
       4871.0300       1.2844180
       4872.5000       1.2177650
       4873.9700       1.1991500
       4875.4400       1.2065050
       4876.9100       1.2090740
       4878.3800       1.2579260
       4879.8500       1.2439910
       4881.3200       1.2962670
       4882.7900       1.3086620
       4884.2600       1.3189590
       4885.7300       1.3477640
       4887.2000       1.2627780
       4888.6700       1.1952870
       4890.1400       1.2526740
       4891.6100       1.3028810
       4893.0800       1.2862900
       4894.5500       1.2549340
       4896.0200       1.3002650
       4897.4900       1.3092140
       4898.9600       1.2971970
       4900.4300       1.2965100
       4901.9000       1.2976470
       4903.3700       1.3390180
       4904.8400       1.3938200
       4906.3100       1.4226460
       4907.7800       1.4080590
       4909.2500       1.3650880
       4910.7200       1.3509680
       4912.1900       1.3417720
       4913.6600       1.4271210
       4915.1300       1.5283530
       4916.6000       1.5320740
       4918.0700       1.4573870
       4919.5400       1.5159620
       4921.0100       1.5283290
       4922.4800       1.5099780
       4923.9500       1.5208600
       4925.4200       1.6113740
       4926.8900       1.6743900
       4928.3600       1.6108800
       4929.8300       1.6616940
       4931.3000       1.6984260
       4932.7700       1.7131600
       4934.2400       1.6851070
       4935.7100       1.7281000
       4937.1800       1.7829920
       4938.6500       1.8370230
       4940.1200       1.8321640
       4941.5900       1.7684900
       4943.0600       1.8141720
       4944.5300       1.8423320
       4946.0000       1.8500400
       4947.4700       1.8338930
       4948.9400       1.8748880
       4950.4100       1.8857290
       4951.8800       1.8025280
       4953.3500       1.7681340
       4954.8200       1.8582030
       4956.2900       1.9032700
       4957.7600       1.8724110
       4959.2300       1.9394910
       4960.7000       1.9405020
       4962.1700       1.8090190
       4963.6400       1.7736490
       4965.1100       1.8573310
       4966.5800       1.8584000
       4968.0500       1.7087460
       4969.5200       1.7243890
       4970.9900       1.7869650
       4972.4600       1.7269010
       4973.9300       1.6360590
       4975.4000       1.6701760
       4976.8700       1.6714520
       4978.3400       1.6577120
       4979.8100       1.6213800
       4981.2800       1.5689460
       4982.7500       1.6050590
       4984.2200       1.6263870
       4985.6900       1.6012520
       4987.1600       1.5725010
       4988.6300       1.4970880
       4990.1000       1.4120800
       4991.5700       1.3899150
       4993.0400       1.3880600
       4994.5100       1.3981200
       4995.9800       1.3677370
       4997.4500       1.3090820
       4998.9200       1.3034000
       5000.3900       1.3701820
       5001.8600       1.3938390
       5003.3300       1.3231660
       5004.8000       1.3212090
       5006.2700       1.2791190
       5007.7400       1.2770150
       5009.2100       1.3238850
       5010.6800       1.2770630
       5012.1500       1.2646290
       5013.6200       1.2827230
       5015.0900       1.2672630
       5016.5600       1.1680000
       5018.0300       1.1684950
       5019.5000       1.2602550
       5020.9700       1.2487910
       5022.4400       1.1619880
       5023.9100       1.0524010
       5025.3800       1.1589880
       5026.8500       1.2228890
       5028.3200       1.1683590
       5029.7900       1.1745130
       5031.2600       1.2056140
       5032.7300       1.1570540
       5034.2000       1.0889190
       5035.6700       1.0970940
       5037.1400       1.0706730
       5038.6100       1.0618180
       5040.0800       1.0491340
       5041.5500       1.0621530
       5043.0200       1.0843960
       5044.4900       1.0610630
       5045.9600       1.0788090
       5047.4300       1.0653690
       5048.9000       1.0820360
       5050.3700       1.1040850
       5051.8400       1.0583410
       5053.3100       1.0712360
       5054.7800       1.0642610
       5056.2500       1.0138900
       5057.7200       1.0237970
       5059.1900      0.97519410
       5060.6600      0.95307360
       5062.1300       1.0627220
       5063.6000       1.1099920
       5065.0700       1.0765790
       5066.5400       1.0632200
       5068.0100       1.1219660
       5069.4800       1.2535470
       5070.9500       1.2629380
       5072.4200       1.1544240
       5073.8900       1.0691570
       5075.3600       1.0646770
       5076.8300       1.0634030
       5078.3000       1.0639510
       5079.7700       1.1239970
       5081.2400       1.1397720
       5082.7100       1.1250090
       5084.1800       1.1762480
       5085.6500       1.2467970
       5087.1200       1.2359860
       5088.5900       1.1323470
       5090.0600       1.1112530
       5091.5300       1.1872580
       5093.0000       1.1928140
       5094.4700       1.0912170
       5095.9400       1.1079020
       5097.4099       1.2082910
       5098.8800       1.1737660
       5100.3500       1.1552030
       5101.8200       1.1839890
       5103.2900       1.1985770
       5104.7600       1.2678800
       5106.2300       1.2506150
       5107.7000       1.2076270
       5109.1700       1.2306770
       5110.6400       1.2496590
       5112.1100       1.2455950
       5113.5800       1.1972210
       5115.0500       1.2559840
       5116.5200       1.2994250
       5117.9900       1.2723830
       5119.4600       1.2738390
       5120.9300       1.2905220
       5122.4000       1.2720150
       5123.8700       1.2469250
       5125.3400       1.2533820
       5126.8100       1.2922300
       5128.2800       1.3334770
       5129.7500       1.3376730
       5131.2200       1.3240150
       5132.6900       1.3164730
       5134.1600       1.3441960
       5135.6300       1.3069650
       5137.1000       1.2645020
       5138.5700       1.3282530
       5140.0400       1.3335910
       5141.5100       1.3214010
       5142.9800       1.4048970
       5144.4500       1.4047220
       5145.9200       1.3190300
       5147.3900       1.3040360
       5148.8600       1.4026510
       5150.3300       1.4598810
       5151.8000       1.3597770
       5153.2700       1.3618740
       5154.7400       1.4098750
       5156.2100       1.3556190
       5157.6800       1.3466190
       5159.1500       1.3545230
       5160.6200       1.3338950
       5162.0900       1.3712940
       5163.5600       1.4129580
       5165.0300       1.4105340
       5166.5000       1.4294540
       5167.9700       1.3943630
       5169.4400       1.3976890
       5170.9100       1.4184660
       5172.3800       1.3543970
       5173.8500       1.3654830
       5175.3200       1.4255370
       5176.7900       1.4622680
       5178.2600       1.4373870
       5179.7300       1.4244900
       5181.2000       1.4651550
       5182.6700       1.4340760
       5184.1400       1.4147320
       5185.6100       1.4471190
       5187.0800       1.4449300
       5188.5500       1.4244250
       5190.0200       1.4237160
       5191.4900       1.4310700
       5192.9600       1.4289530
       5194.4300       1.4401670
       5195.9000       1.4579380
       5197.3700       1.4488170
       5198.8400       1.4252630
       5200.3100       1.4499500
       5201.7800       1.5419720
       5203.2500       1.5785430
       5204.7200       1.5800580
       5206.1900       1.5905470
       5207.6600       1.5302360
       5209.1300       1.4689000
       5210.6000       1.5090170
       5212.0700       1.5695280
       5213.5400       1.5024790
       5215.0100       1.4942250
       5216.4800       1.5648820
       5217.9500       1.6015940
       5219.4200       1.5891590
       5220.8900       1.5718670
       5222.3600       1.6751300
       5223.8300       1.6811720
       5225.3000       1.5846440
       5226.7700       1.5936030
       5228.2400       1.6651330
       5229.7100       1.6898060
       5231.1800       1.6724410
       5232.6500       1.6423830
       5234.1200       1.6348720
       5235.5900       1.6858450
       5237.0600       1.7741270
       5238.5300       1.7557450
       5240.0000       1.6807310
       5241.4700       1.7200850
       5242.9400       1.7194490
       5244.4100       1.6831610
       5245.8800       1.7330010
       5247.3500       1.7343940
       5248.8200       1.7157560
       5250.2900       1.7381680
       5251.7600       1.7529630
       5253.2300       1.8120790
       5254.7000       1.8246300
       5256.1700       1.8359000
       5257.6400       1.8380670
       5259.1100       1.7717410
       5260.5800       1.8229860
       5262.0500       1.8722010
       5263.5200       1.8876130
       5264.9900       1.9373180
       5266.4600       1.9533000
       5267.9300       1.9629890
       5269.4000       1.9872160
       5270.8700       1.9489000
       5272.3400       1.9722520
       5273.8100       2.0123880
       5275.2800       1.8958180
       5276.7500       1.8842740
       5278.2200       1.9914450
       5279.6900       1.9757000
       5281.1600       2.0128570
       5282.6300       2.0974670
       5284.1000       2.1333310
       5285.5700       2.0433510
       5287.0400       1.9743800
       5288.5100       2.0241730
       5289.9800       2.0523710
       5291.4500       2.0537820
       5292.9200       2.0789840
       5294.3900       2.1125900
       5295.8600       2.1448710
       5297.3300       2.1612800
       5298.8000       2.1295160
       5300.2700       2.1530230
       5301.7400       2.1723750
       5303.2100       2.0933270
       5304.6800       2.0870310
       5306.1500       2.1663260
       5307.6200       2.2300330
       5309.0900       2.2084360
       5310.5600       2.2248470
       5312.0300       2.2344250
       5313.5000       2.3196210
       5314.9700       2.3171580
       5316.4400       2.2246450
       5317.9100       2.2729570
       5319.3800       2.3125000
       5320.8500       2.2576850
       5322.3200       2.2206960
       5323.7900       2.3053220
       5325.2600       2.3753400
       5326.7300       2.3932900
       5328.2000       2.3801130
       5329.6700       2.2978990
       5331.1400       2.3080660
       5332.6100       2.3322580
       5334.0800       2.3655430
       5335.5500       2.4262410
       5337.0200       2.4196620
       5338.4900       2.4033840
       5339.9600       2.3443600
       5341.4300       2.3125580
       5342.9000       2.3452390
       5344.3700       2.3827110
       5345.8400       2.4161090
       5347.3100       2.4018480
       5348.7800       2.3389150
       5350.2500       2.3416550
       5351.7200       2.3192440
       5353.1900       2.2721770
       5354.6600       2.1805450
       5356.1300       2.1371420
       5357.6000       2.1596140
       5359.0700       2.1469230
       5360.5400       2.1374160
       5362.0100       2.1120270
       5363.4800       2.1080940
       5364.9500       2.1327590
       5366.4200       2.1120510
       5367.8900       2.1655280
       5369.3600       2.1773250
       5370.8300       2.1193700
       5372.3000       2.0744680
       5373.7700       2.0933170
       5375.2400       2.1616840
       5376.7100       2.1270890
       5378.1800       2.1237420
       5379.6500       2.0786070
       5381.1200       2.0109450
       5382.5900       2.1494580
       5384.0600       2.0826370
       5385.5300       1.9581710
       5387.0000       2.0281380
       5388.4700       2.0277150
       5389.9400       2.0803050
       5391.4100       2.1185490
       5392.8800       2.0446130
       5394.3500       2.0839580
       5395.8200       2.0917190
       5397.2900       2.1141310
       5398.7600       2.1508470
       5400.2300       2.0784660
       5401.7000       2.0581520
       5403.1700       2.0607860
       5404.6400       2.0603160
       5406.1100       2.0971570
       5407.5800       2.0729230
       5409.0500       2.0478690
       5410.5199       2.1379600
       5411.9900       2.1875050
       5413.4600       2.1856890
       5414.9300       2.1501120
       5416.4000       2.0934190
       5417.8700       2.0851650
       5419.3400       2.1319090
       5420.8100       2.2038090
       5422.2800       2.2259650
       5423.7500       2.2077010
       5425.2200       2.2350230
       5426.6900       2.2424720
       5428.1600       2.2441470
       5429.6300       2.2787510
       5431.1000       2.2742070
       5432.5700       2.3022570
       5434.0400       2.3319620
       5435.5100       2.3127850
       5436.9800       2.3691830
       5438.4500       2.4491360
       5439.9200       2.4321890
       5441.3900       2.4229330
       5442.8600       2.4551530
       5444.3300       2.5457200
       5445.8000       2.5763280
       5447.2700       2.5227800
       5448.7400       2.6100460
       5450.2100       2.7167750
       5451.6800       2.6741470
       5453.1500       2.7003200
       5454.6200       2.7582800
       5456.0900       2.7510960
       5457.5600       2.7547470
       5459.0300       2.7025210
       5460.5000       2.7484140
       5461.9700       2.8593010
       5463.4400       2.8074610
       5464.9100       2.7688540
       5466.3800       2.8468110
       5467.8500       2.8828170
       5469.3200       2.8635010
       5470.7900       2.8969700
       5472.2600       2.9002410
       5473.7300       2.9083560
       5475.2000       3.0023600
       5476.6700       3.0183970
       5478.1400       2.8719570
       5479.6100       2.8509610
       5481.0800       2.9420440
       5482.5500       2.9040090
       5484.0200       2.9018370
       5485.4900       2.9692610
       5486.9600       2.9678180
       5488.4300       2.9275390
       5489.9000       2.8971120
       5491.3700       2.8532800
       5492.8400       2.8917030
       5494.3100       2.9273030
       5495.7800       2.9248770
       5497.2500       2.9194560
       5498.7200       2.8455050
       5500.1900       2.8547470
       5501.6600       2.9204020
       5503.1300       2.9192460
       5504.6000       2.8866570
       5506.0700       2.8530090
       5507.5400       2.8338330
       5509.0100       2.7939310
       5510.4800       2.8847340
       5511.9500       2.9232320
       5513.4200       2.7536400
       5514.8900       2.6954870
       5516.3600       2.7363070
       5517.8300       2.7862080
       5519.3000       2.7645430
       5520.7700       2.7471150
       5522.2400       2.8054390
       5523.7100       2.7490670
       5525.1800       2.6491760
       5526.6500       2.6335550
       5528.1200       2.6350330
       5529.5900       2.6440070
       5531.0600       2.6299350
       5532.5300       2.5757320
       5534.0000       2.5902900
       5535.4700       2.6153190
       5536.9400       2.5511870
       5538.4100       2.5536420
       5539.8800       2.6079700
       5541.3500       2.5480450
       5542.8200       2.5236090
       5544.2900       2.5914720
       5545.7600       2.6114120
       5547.2300       2.5915920
       5548.7000       2.5931600
       5550.1700       2.6162390
       5551.6400       2.5283680
       5553.1100       2.5099340
       5554.5800       2.5323360
       5556.0500       2.4915980
       5557.5200       2.5252290
       5558.9900       2.5644170
       5560.4600       2.5433900
       5561.9300       2.5226070
       5563.4000       2.5515300
       5564.8700       2.5525970
       5566.3400       2.5325330
       5567.8100       2.5551990
       5569.2800       2.5536150
       5570.7500       2.5304650
       5572.2200       2.5694190
       5573.6900       2.6626970
       5575.1600       2.7198760
       5576.6300       2.6060200
       5578.1000       2.6498290
       5579.5700       2.7894060
       5581.0400       2.5920220
       5582.5100       2.5580430
       5583.9800       2.7504030
       5585.4500       2.7293940
       5586.9200       2.6627860
       5588.3900       2.7929210
       5589.8600       2.7714180
       5591.3300       2.7110910
       5592.8000       2.8246120
       5594.2700       2.8597590
       5595.7400       2.8594850
       5597.2100       2.8676710
       5598.6800       2.8574670
       5600.1500       2.8596730
       5601.6200       2.8833940
       5603.0900       2.8425410
       5604.5600       2.7929840
       5606.0300       2.7900620
       5607.5000       2.9401350
       5608.9700       3.0480720
       5610.4400       2.9770140
       5611.9100       2.9873530
       5613.3800       2.9639100
       5614.8500       2.8923520
       5616.3200       2.9949960
       5617.7900       3.0269900
       5619.2600       2.9712910
       5620.7300       2.9569150
       5622.2000       3.0528060
       5623.6700       3.1146540
       5625.1400       3.0404840
       5626.6100       2.9529010
       5628.0800       2.9270920
       5629.5500       2.9277250
       5631.0200       2.9555440
       5632.4900       3.0598920
       5633.9600       3.0814400
       5635.4300       3.1124640
       5636.9000       3.1581980
       5638.3700       3.1233250
       5639.8400       3.0683300
       5641.3100       3.0189120
       5642.7800       2.9751630
       5644.2500       2.9640360
       5645.7200       3.0276500
       5647.1900       2.9875690
       5648.6600       2.9188250
       5650.1300       2.9293040
       5651.6000       2.9375670
       5653.0700       2.9184500
       5654.5400       2.8631470
       5656.0100       2.8659870
       5657.4800       2.9199390
       5658.9500       2.8647320
       5660.4200       2.7712940
       5661.8900       2.7386520
       5663.3600       2.6900340
       5664.8300       2.6619090
       5666.3000       2.6632050
       5667.7700       2.7194440
       5669.2400       2.6879550
       5670.7100       2.6038120
       5672.1800       2.5917990
       5673.6500       2.6149370
       5675.1200       2.5841610
       5676.5900       2.5466330
       5678.0600       2.5264950
       5679.5300       2.4802570
       5681.0000       2.4352500
       5682.4700       2.4134770
       5683.9400       2.4400600
       5685.4100       2.3672120
       5686.8800       2.3694600
       5688.3500       2.3940980
       5689.8200       2.4086940
       5691.2900       2.4190410
       5692.7600       2.2829960
       5694.2300       2.2188580
       5695.7000       2.2582300
       5697.1700       2.2663200
       5698.6400       2.2305670
       5700.1100       2.1726820
       5701.5800       2.1540010
       5703.0500       2.2069630
       5704.5200       2.2499920
       5705.9900       2.2673910
       5707.4600       2.2593120
       5708.9300       2.2051480
       5710.4000       2.0957850
       5711.8700       2.0746240
       5713.3400       2.0827130
       5714.8100       2.0368670
       5716.2800       2.0170910
       5717.7500       2.0490930
       5719.2200       2.1025510
       5720.6900       2.0747240
       5722.1600       2.0468370
       5723.6299       2.0305770
       5725.1000       2.0507170
       5726.5700       2.0841950
       5728.0400       2.0195900
       5729.5100       1.9699550
       5730.9800       2.0599040
       5732.4500       2.1014900
       5733.9200       2.0264620
       5735.3900       2.0104130
       5736.8600       2.0568870
       5738.3300       2.0547590
       5739.8000       2.0490830
       5741.2700       2.1028550
       5742.7400       2.0910480
       5744.2100       2.0901660
       5745.6800       2.1483060
       5747.1500       2.1287970
       5748.6200       2.0639070
       5750.0900       2.0334880
       5751.5600       2.0611780
       5753.0300       2.0428240
       5754.5000       2.0018290
       5755.9700       2.0495050
       5757.4400       2.0644370
       5758.9100       2.0432770
       5760.3800       2.0445560
       5761.8500       2.0118680
       5763.3200       2.0010040
       5764.7900       2.0220800
       5766.2600       2.0252990
       5767.7300       1.9928690
       5769.2000       1.9678200
       5770.6700       2.0203930
       5772.1400       2.0267980
       5773.6100       2.0308330
       5775.0800       2.1001960
       5776.5500       2.0889230
       5778.0200       2.0025170
       5779.4900       2.0147780
       5780.9600       2.0323650
       5782.4300       2.0205230
       5783.9000       2.0434740
       5785.3700       2.0196700
       5786.8400       2.0046360
       5788.3100       2.0492890
       5789.7800       2.0435750
       5791.2500       2.0105240
       5792.7200       2.0277500
       5794.1900       2.0619190
       5795.6600       2.0648760
       5797.1300       2.0276040
       5798.6000       2.0428940
       5800.0700       2.0373440
       5801.5400       1.9715670
       5803.0100       1.9994480
       5804.4800       2.0653410
       5805.9500       2.1067260
       5807.4200       2.1165000
       5808.8900       2.0968640
       5810.3600       2.0992520
       5811.8300       2.1607180
       5813.3000       2.1460590
       5814.7700       2.1708730
       5816.2400       2.1949700
       5817.7100       2.2398190
       5819.1800       2.2879800
       5820.6500       2.2853660
       5822.1200       2.3462780
       5823.5900       2.3206960
       5825.0600       2.2879400
       5826.5300       2.3256810
       5828.0000       2.3797350
       5829.4700       2.3873900
       5830.9400       2.4056170
       5832.4100       2.4424630
       5833.8800       2.4488890
       5835.3500       2.4974530
       5836.8200       2.5015750
       5838.2900       2.4475920
       5839.7600       2.4584930
       5841.2300       2.5105500
       5842.7000       2.5897680
       5844.1700       2.6124040
       5845.6400       2.5462620
       5847.1100       2.4441110
       5848.5800       2.5155790
       5850.0500       2.6243050
       5851.5200       2.5563140
       5852.9900       2.4899980
       5854.4600       2.4846110
       5855.9300       2.5374110
       5857.4000       2.6735460
       5858.8700       2.6374530
       5860.3400       2.6203420
       5861.8100       2.6541180
       5863.2800       2.5339320
       5864.7500       2.5076090
       5866.2200       2.5546850
       5867.6900       2.5425770
       5869.1600       2.5135020
       5870.6300       2.4605960
       5872.1000       2.5299970
       5873.5700       2.5627480
       5875.0400       2.4662720
       5876.5100       2.4362440
       5877.9800       2.4515960
       5879.4500       2.4096140
       5880.9200       2.4082270
       5882.3900       2.4377030
       5883.8600       2.4310970
       5885.3300       2.4297180
       5886.8000       2.4278790
       5888.2700       2.4272700
       5889.7400       2.5003890
       5891.2100       2.4371280
       5892.6800       2.3707730
       5894.1500       2.3624310
       5895.6200       2.3827870
       5897.0900       2.4907370
       5898.5600       2.4860630
       5900.0300       2.4277910
       5901.5000       2.4762140
       5902.9700       2.5405570
       5904.4400       2.5267710
       5905.9100       2.5057410
       5907.3800       2.4583210
       5908.8500       2.4644840
       5910.3200       2.4755750
       5911.7900       2.4727430
       5913.2600       2.4348700
       5914.7300       2.3943090
       5916.2000       2.4374070
       5917.6700       2.4745190
       5919.1400       2.4197330
       5920.6100       2.4031300
       5922.0800       2.4428410
       5923.5500       2.4436070
       5925.0200       2.4568570
       5926.4900       2.4438730
       5927.9600       2.4008510
       5929.4300       2.4170680
       5930.9000       2.5114600
       5932.3700       2.5710800
       5933.8400       2.5050830
       5935.3100       2.4417010
       5936.7800       2.4902590
       5938.2500       2.5389450
       5939.7200       2.5259960
       5941.1900       2.5110990
       5942.6600       2.4553420
       5944.1300       2.4129640
       5945.6000       2.4690440
       5947.0700       2.5234630
       5948.5400       2.4783850
       5950.0100       2.4107550
       5951.4800       2.3988930
       5952.9500       2.4234570
       5954.4200       2.4389930
       5955.8900       2.4248050
       5957.3600       2.4164870
       5958.8300       2.3908440
       5960.3000       2.3757270
       5961.7700       2.4298520
       5963.2400       2.4537480
       5964.7100       2.3357900
       5966.1800       2.2536580
       5967.6500       2.3311080
       5969.1200       2.3643520
       5970.5900       2.3201090
       5972.0600       2.2773690
       5973.5300       2.3043300
       5975.0000       2.3724780
       5976.4700       2.3047420
       5977.9400       2.2925310
       5979.4100       2.3824850
       5980.8800       2.3215040
       5982.3500       2.1773940
       5983.8200       2.1875900
       5985.2900       2.3012660
       5986.7600       2.3200010
       5988.2300       2.2691280
       5989.7000       2.2441780
       5991.1700       2.2289910
       5992.6400       2.1689470
       5994.1100       2.1602260
       5995.5800       2.1730500
       5997.0500       2.1793940
       5998.5200       2.1865090
       5999.9900       2.1086910
       6001.4600       2.0675490
       6002.9300       2.0356760
       6004.4000       2.0385910
       6005.8700       2.1216850
       6007.3400       2.1505590
       6008.8100       2.1709560
       6010.2800       2.1317750
       6011.7500       2.0833360
       6013.2200       2.0832680
       6014.6900       2.0983440
       6016.1600       2.1482670
       6017.6300       2.1243020
       6019.1000       2.0845840
       6020.5700       2.0665420
       6022.0400       2.0580530
       6023.5100       2.1320520
       6024.9800       2.1425110
       6026.4500       2.1115840
       6027.9200       2.0856150
       6029.3900       2.0221120
       6030.8600       2.0293970
       6032.3300       2.0786240
       6033.8000       2.0753580
       6035.2700       2.0536950
       6036.7399       2.0009840
       6038.2100       1.9812800
       6039.6800       2.0031730
       6041.1500       1.9861520
       6042.6200       1.9929560
       6044.0900       1.9462680
       6045.5600       1.9386630
       6047.0300       1.9830090
       6048.5000       1.9966680
       6049.9700       1.9904840
       6051.4400       1.9957250
       6052.9100       1.9629270
       6054.3800       1.9513120
       6055.8500       1.9114220
       6057.3200       1.8348450
       6058.7900       1.9312240
       6060.2600       2.0108530
       6061.7300       2.0024160
       6063.2000       1.9781100
       6064.6700       1.9744430
       6066.1400       2.0235460
       6067.6100       2.0088900
       6069.0800       1.9068220
       6070.5500       1.8979870
       6072.0200       1.9200260
       6073.4900       1.9194410
       6074.9600       1.9563950
       6076.4300       1.9362740
       6077.9000       1.9169670
       6079.3700       1.9260130
       6080.8400       1.9250270
       6082.3100       1.8925440
       6083.7800       1.8688370
       6085.2500       1.8893560
       6086.7200       1.8512370
       6088.1900       1.8583060
       6089.6600       1.9609920
       6091.1300       1.9560580
       6092.6000       1.9467010
       6094.0700       1.9357570
       6095.5400       1.8638250
       6097.0100       1.8675780
       6098.4800       1.8635630
       6099.9500       1.8227210
       6101.4200       1.8239340
       6102.8900       1.8671850
       6104.3600       1.9056210
       6105.8300       1.8688260
       6107.3000       1.8648350
       6108.7700       1.8849080
       6110.2400       1.8300630
       6111.7100       1.7806610
       6113.1800       1.8010860
       6114.6500       1.8764710
       6116.1200       1.9231200
       6117.5900       1.8805740
       6119.0600       1.9005400
       6120.5300       1.9467160
       6122.0000       1.9112220
       6123.4700       1.9501350
       6124.9400       1.9767510
       6126.4100       1.9507480
       6127.8800       2.0028110
       6129.3500       2.0090850
       6130.8200       1.9309870
       6132.2900       1.9555630
       6133.7600       2.0310970
       6135.2300       2.0323010
       6136.7000       2.0109110
       6138.1700       1.9735710
       6139.6400       2.0036950
       6141.1100       2.0856450
       6142.5800       2.0898870
       6144.0500       2.0917880
       6145.5200       2.0969480
       6146.9900       2.0907000
       6148.4600       2.0909610
       6149.9300       2.1053570
       6151.4000       2.1275670
       6152.8700       2.1687110
       6154.3400       2.2528610
       6155.8100       2.2564850
       6157.2800       2.1812280
       6158.7500       2.1779810
       6160.2200       2.2486030
       6161.6900       2.2637650
       6163.1600       2.2147230
       6164.6300       2.1898080
       6166.1000       2.1825190
       6167.5700       2.2338760
       6169.0400       2.2922120
       6170.5100       2.2546060
       6171.9800       2.2312540
       6173.4500       2.2457310
       6174.9200       2.2459870
       6176.3900       2.2722010
       6177.8600       2.3023460
       6179.3300       2.2555790
       6180.8000       2.2229570
       6182.2700       2.2881920
       6183.7400       2.3403590
       6185.2100       2.2843500
       6186.6800       2.2231900
       6188.1500       2.1864510
       6189.6200       2.1373090
       6191.0900       2.1785320
       6192.5600       2.2301360
       6194.0300       2.1751280
       6195.5000       2.1036050
       6196.9700       2.0502490
       6198.4400       2.1369230
       6199.9100       2.1623940
       6201.3800       2.0954360
       6202.8500       2.2002470
       6204.3200       2.2268590
       6205.7900       2.1052830
       6207.2600       2.0635320
       6208.7300       2.1368180
       6210.2000       2.1294500
       6211.6700       2.0587450
       6213.1400       2.0768130
       6214.6100       2.1198610
       6216.0800       2.1129680
       6217.5500       2.1035390
       6219.0200       2.1854360
       6220.4900       2.1312590
       6221.9600       2.0051550
       6223.4300       1.9959230
       6224.9000       2.0621470
       6226.3700       2.0456680
       6227.8400       1.9436130
       6229.3100       1.9309990
       6230.7800       1.9626480
       6232.2500       2.0252910
       6233.7200       2.0667250
       6235.1900       2.1006440
       6236.6600       2.0793040
       6238.1300       1.9837140
       6239.6000       1.9649470
       6241.0700       2.0020640
       6242.5400       1.9503650
       6244.0100       1.9542050
       6245.4800       2.0541420
       6246.9500       2.0835650
       6248.4200       2.0194850
       6249.8900       1.9467930
       6251.3600       1.9787210
       6252.8300       2.0420900
       6254.3000       2.0010270
       6255.7700       1.9097910
       6257.2400       1.9208410
       6258.7100       2.0283350
       6260.1800       2.0458060
       6261.6500       2.0011240
       6263.1200       1.9434190
       6264.5900       1.8667060
       6266.0600       1.7831870
       6267.5300       1.7637330
       6269.0000       1.8238660
       6270.4700       1.8330800
       6271.9400       1.8493500
       6273.4100       1.8689190
       6274.8800       1.7869600
       6276.3500       1.7331800
       6277.8200       1.7689240
       6279.2900       1.7832240
       6280.7600       1.7357680
       6282.2300       1.7283230
       6283.7000       1.8307090
       6285.1700       1.8933930
       6286.6400       1.8367360
       6288.1100       1.7867650
       6289.5800       1.7986410
       6291.0500       1.8698420
       6292.5200       1.9363090
       6293.9900       1.8600920
       6295.4600       1.7623800
       6296.9300       1.6904110
       6298.4000       1.6985580
       6299.8700       1.8010950
       6301.3400       1.7832930
       6302.8100       1.7374680
       6304.2800       1.7311620
       6305.7500       1.6858420
       6307.2200       1.7242030
       6308.6900       1.7544620
       6310.1600       1.6635660
       6311.6300       1.6765270
       6313.1000       1.7723460
       6314.5700       1.7892100
       6316.0400       1.8015860
       6317.5100       1.7942490
       6318.9800       1.7613870
       6320.4500       1.7546550
       6321.9200       1.7735260
       6323.3900       1.8404770
       6324.8600       1.7778850
       6326.3300       1.6598470
       6327.8000       1.7348260
       6329.2700       1.8268480
       6330.7400       1.7675850
       6332.2100       1.7439010
       6333.6800       1.8075210
       6335.1500       1.7643900
       6336.6200       1.7306850
       6338.0900       1.8018130
       6339.5600       1.8205890
       6341.0300       1.7621320
       6342.5000       1.7568790
       6343.9700       1.8211520
       6345.4400       1.8212040
       6346.9100       1.7880580
       6348.3800       1.7767370
       6349.8499       1.8368040
       6351.3200       1.9392720
       6352.7900       1.9159230
       6354.2600       1.8270920
       6355.7300       1.7978740
       6357.2000       1.8183280
       6358.6700       1.8201480
       6360.1400       1.8001390
       6361.6100       1.8172680
       6363.0800       1.8192490
       6364.5500       1.7747630
       6366.0200       1.8832990
       6367.4900       1.9685250
       6368.9600       1.8371720
       6370.4300       1.8038420
       6371.9000       1.8784840
       6373.3700       1.9205840
       6374.8400       1.8995180
       6376.3100       1.9188240
       6377.7800       1.9591700
       6379.2500       1.9435110
       6380.7200       1.9408950
       6382.1900       1.8987530
       6383.6600       1.9396830
       6385.1300       2.0085110
       6386.6000       1.9841650
       6388.0700       2.0012220
       6389.5400       1.9970020
       6391.0100       1.9356830
       6392.4800       2.0400760
       6393.9500       2.1361760
       6395.4200       2.0213300
       6396.8900       1.9911800
       6398.3600       2.0517500
       6399.8300       2.1011440
       6401.3000       2.0650280
       6402.7700       1.9855550
       6404.2400       2.0494070
       6405.7100       2.0731660
       6407.1800       2.0124190
       6408.6500       2.0456250
       6410.1200       2.1041810
       6411.5900       2.0972980
       6413.0600       2.1417880
       6414.5300       2.2231040
       6416.0000       2.1989560
       6417.4700       2.0897040
       6418.9400       2.1120460
       6420.4100       2.2469200
       6421.8800       2.2069040
       6423.3500       2.1749770
       6424.8200       2.2646920
       6426.2900       2.2668370
       6427.7600       2.2246070
       6429.2300       2.2033830
       6430.7000       2.2662390
       6432.1700       2.2843150
       6433.6400       2.2533180
       6435.1100       2.2599080
       6436.5800       2.2493220
       6438.0500       2.2815310
       6439.5200       2.3356660
       6440.9900       2.3552590
       6442.4600       2.3577730
       6443.9300       2.3152970
       6445.4000       2.2600120
       6446.8700       2.2607410
       6448.3400       2.3282630
       6449.8100       2.3641040
       6451.2800       2.2729880
       6452.7500       2.2932490
       6454.2200       2.3547720
       6455.6900       2.3838010
       6457.1600       2.3915670
       6458.6300       2.3743750
       6460.1000       2.3884070
       6461.5700       2.2999980
       6463.0400       2.2860170
       6464.5100       2.3681680
       6465.9800       2.3216130
       6467.4500       2.3164810
       6468.9200       2.3369100
       6470.3900       2.2907190
       6471.8600       2.3551190
       6473.3300       2.4042660
       6474.8000       2.3315300
       6476.2700       2.3139910
       6477.7400       2.3238040
       6479.2100       2.2998550
       6480.6800       2.3242460
       6482.1500       2.3353210
       6483.6200       2.3949100
       6485.0900       2.3878100
       6486.5600       2.3077430
       6488.0300       2.3465370
       6489.5000       2.3390320
       6490.9700       2.3070170
       6492.4400       2.3641230
       6493.9100       2.2930920
       6495.3800       2.2604630
       6496.8500       2.3808110
       6498.3200       2.3818480
       6499.7900       2.2995770
       6501.2600       2.2890920
       6502.7300       2.3995800
       6504.2000       2.4820160
       6505.6700       2.4774400
       6507.1400       2.4478220
       6508.6100       2.4615450
       6510.0800       2.4711470
       6511.5500       2.3987430
       6513.0200       2.3688280
       6514.4900       2.3919640
       6515.9600       2.4184860
       6517.4300       2.4476060
       6518.9000       2.4470430
       6520.3700       2.4286080
       6521.8400       2.4300620
       6523.3100       2.4460750
       6524.7800       2.4374790
       6526.2500       2.4534110
       6527.7200       2.4795650
       6529.1900       2.4557260
       6530.6600       2.4554550
       6532.1300       2.4687720
       6533.6000       2.4417550
       6535.0700       2.4491190
       6536.5400       2.5354040
       6538.0100       2.5195160
       6539.4800       2.4545320
       6540.9500       2.5091190
       6542.4200       2.4531070
       6543.8900       2.3579450
       6545.3600       2.4275480
       6546.8300       2.4649510
       6548.3000       2.4371490
       6549.7700       2.4611220
       6551.2400       2.4266630
       6552.7100       2.3902320
       6554.1800       2.4492670
       6555.6500       2.4726140
       6557.1200       2.4618550
       6558.5900       2.4519250
       6560.0600       2.4718870
       6561.5300       2.4860250
       6563.0000       2.4378650
       6564.4700       2.4296360
       6565.9400       2.4883090
       6567.4100       2.5328770
       6568.8800       2.4781000
       6570.3500       2.4377460
       6571.8200       2.4900500
       6573.2900       2.5144370
       6574.7600       2.5302950
       6576.2300       2.4960460
       6577.7000       2.4293140
       6579.1700       2.4586610
       6580.6400       2.4940320
       6582.1100       2.4660950
       6583.5800       2.4222890
       6585.0500       2.4349180
       6586.5200       2.4763840
       6587.9900       2.4991820
       6589.4600       2.5372410
       6590.9300       2.5926660
       6592.4000       2.6704920
       6593.8700       2.7265690
       6595.3400       2.6829930
       6596.8100       2.5852210
       6598.2800       2.4402630
       6599.7500       2.3370660
       6601.2200       2.4433520
       6602.6900       2.4974180
       6604.1600       2.4306820
       6605.6300       2.4537930
       6607.1000       2.4510950
       6608.5700       2.4511100
       6610.0400       2.4910170
       6611.5100       2.5285260
       6612.9800       2.5583410
       6614.4500       2.5107000
       6615.9200       2.4619990
       6617.3900       2.3982960
       6618.8600       2.4153940
       6620.3300       2.4683110
       6621.8000       2.4767020
       6623.2700       2.4713120
       6624.7400       2.4187050
       6626.2100       2.4405480
       6627.6800       2.4617220
       6629.1500       2.4869010
       6630.6200       2.4884870
       6632.0900       2.4742280
       6633.5600       2.5286060
       6635.0300       2.5261340
       6636.5000       2.5098820
       6637.9700       2.5203780
       6639.4400       2.4473190
       6640.9100       2.4479300
       6642.3800       2.5281480
       6643.8500       2.4198890
       6645.3200       2.4087250
       6646.7900       2.4504410
       6648.2600       2.3876050
       6649.7300       2.4018330
       6651.2000       2.3706560
       6652.6700       2.2925750
       6654.1400       2.2700910
       6655.6100       2.2999540
       6657.0800       2.3269440
       6658.5500       2.3492690
       6660.0200       2.3578580
       6661.4900       2.3273210
       6662.9599       2.3018230
       6664.4300       2.2837800
       6665.9000       2.2630720
       6667.3700       2.3443980
       6668.8400       2.3280500
       6670.3100       2.2078200
       6671.7800       2.2288490
       6673.2500       2.2892690
       6674.7200       2.2551810
       6676.1900       2.2186460
       6677.6600       2.2227120
       6679.1300       2.2314690
       6680.6000       2.2197950
       6682.0700       2.1874550
       6683.5400       2.2194490
       6685.0100       2.2062670
       6686.4800       2.1963740
       6687.9500       2.2898110
       6689.4200       2.3361480
       6690.8900       2.2799790
       6692.3600       2.2336580
       6693.8300       2.2513740
       6695.3000       2.2061650
       6696.7700       2.1809840
       6698.2400       2.2391180
       6699.7100       2.1569620
       6701.1800       2.1701110
       6702.6500       2.2031820
       6704.1200       2.1405850
       6705.5900       2.1777890
       6707.0600       2.2265550
       6708.5300       2.1882920
       6710.0000       2.1914700
       6711.4700       2.2914500
       6712.9400       2.3148650
       6714.4100       2.3042870
       6715.8800       2.2384040
       6717.3500       2.1609470
       6718.8200       2.2376010
       6720.2900       2.2683610
       6721.7600       2.2089200
       6723.2300       2.1921280
       6724.7000       2.2431240
       6726.1700       2.2811970
       6727.6400       2.2475550
       6729.1100       2.1753670
       6730.5800       2.2189140
       6732.0500       2.2654410
       6733.5200       2.2983370
       6734.9900       2.3896540
       6736.4600       2.3669930
       6737.9300       2.2891000
       6739.4000       2.2346850
       6740.8700       2.1707290
       6742.3400       2.2078530
       6743.8100       2.2719450
       6745.2800       2.2540780
       6746.7500       2.3568200
       6748.2200       2.4519400
       6749.6900       2.3869660
       6751.1600       2.3118470
       6752.6300       2.2102070
       6754.1000       2.2052430
       6755.5700       2.2372870
       6757.0400       2.2090320
       6758.5100       2.2398780
       6759.9800       2.2622550
       6761.4500       2.2525020
       6762.9200       2.2217600
       6764.3900       2.1481770
       6765.8600       2.1845270
       6767.3300       2.2775160
       6768.8000       2.2731090
       6770.2700       2.2750070
       6771.7400       2.3318570
       6773.2100       2.3176330
       6774.6800       2.2252820
       6776.1500       2.1938630
       6777.6200       2.2376190
       6779.0900       2.2819460
       6780.5600       2.2675810
       6782.0300       2.2309590
       6783.5000       2.2463080
       6784.9700       2.2715340
       6786.4400       2.2380780
       6787.9100       2.1633780
       6789.3800       2.1168900
       6790.8500       2.1279590
       6792.3200       2.0897480
       6793.7900       2.0873330
       6795.2600       2.1342000
       6796.7300       2.1406390
       6798.2000       2.1106070
       6799.6700       2.0252940
       6801.1400       2.0080400
       6802.6100       2.0661990
       6804.0800       2.0038470
       6805.5500       1.9317300
       6807.0200       2.0316620
       6808.4900       2.0900910
       6809.9600       2.0295640
       6811.4300       1.9794860
       6812.9000       1.9828230
       6814.3700       2.0059030
       6815.8400       1.9911820
       6817.3100       1.9923990
       6818.7800       2.0059450
       6820.2500       1.9768880
       6821.7200       1.9625600
       6823.1900       1.9420470
       6824.6600       1.9061270
       6826.1300       1.9570920
       6827.6000       1.9955790
       6829.0700       1.9222290
       6830.5400       1.8686650
       6832.0100       1.8466440
       6833.4800       1.7747680
       6834.9500       1.8088740
       6836.4200       1.9231710
       6837.8900       1.8378400
       6839.3600       1.7740190
       6840.8300       1.7996450
       6842.3000       1.8540710
       6843.7700       1.8913110
       6845.2400       1.8258130
       6846.7100       1.8602610
       6848.1800       1.8908160
       6849.6500       1.8303890
       6851.1200       1.7635040
       6852.5900       1.8122890
       6854.0600       1.8664830
       6855.5300       1.8285040
       6857.0000       1.7722260
       6858.4700       1.7768290
       6859.9400       1.8104110
       6861.4100       1.8064990
       6862.8800       1.8378940
       6864.3500       1.8356880
       6865.8200       1.8889980
       6867.2900       1.9331250
       6868.7600       1.8049130
       6870.2300       1.7662500
       6871.7000       1.8733660
       6873.1700       1.8950500
       6874.6400       1.7913370
       6876.1100       1.7213690
       6877.5800       1.7592420
       6879.0500       1.7921760
       6880.5200       1.8168360
       6881.9900       1.8259990
       6883.4600       1.8251810
       6884.9300       1.8448200
       6886.4000       1.8690070
       6887.8700       1.8085680
       6889.3400       1.7624770
       6890.8100       1.7993170
       6892.2800       1.8440040
       6893.7500       1.8757050
       6895.2200       1.8429340
       6896.6900       1.8255670
       6898.1600       1.8159170
       6899.6300       1.8272770
       6901.1000       1.8922250
       6902.5700       1.8539860
       6904.0400       1.8257950
       6905.5100       1.9202640
       6906.9800       1.9293660
       6908.4500       1.9071730
       6909.9200       1.8714720
       6911.3900       1.9138820
       6912.8600       2.0039710
       6914.3300       1.9648010
       6915.8000       1.8696310
       6917.2700       1.8609750
       6918.7400       1.9053020
       6920.2100       1.9226700
       6921.6800       1.9162320
       6923.1500       1.9165470
       6924.6200       1.8812340
       6926.0900       1.8085840
       6927.5600       1.8715350
       6929.0300       1.9751420
       6930.5000       1.9925940
       6931.9700       1.8928340
       6933.4400       1.8562990
       6934.9100       1.9292550
       6936.3800       1.9348950
       6937.8500       1.9698660
       6939.3200       2.0291100
       6940.7900       2.0066140
       6942.2600       1.9966720
       6943.7300       2.0564040
       6945.2000       2.0963730
       6946.6700       2.0461230
       6948.1400       2.0050490
       6949.6100       2.0657070
       6951.0800       2.0696150
       6952.5500       2.0347520
       6954.0200       2.0241170
       6955.4900       1.9740230
       6956.9600       1.9864080
       6958.4300       2.0347410
       6959.9000       2.0390660
       6961.3700       1.9487190
       6962.8400       1.8945490
       6964.3100       1.9367490
       6965.7800       1.9638940
       6967.2500       2.0028100
       6968.7200       2.0180030
       6970.1900       2.0649090
       6971.6600       2.0388420
       6973.1300       1.9589420
       6974.6000       1.9724820
       6976.0700       1.9495960
       6977.5400       1.9402380
       6979.0100       1.9723910
       6980.4800       1.9908140
       6981.9500       1.9180780
       6983.4200       1.8839600
       6984.8900       1.9646250
       6986.3600       1.9894270
       6987.8300       1.9944110
       6989.3000       1.9947370
       6990.7700       1.9924490
       6992.2400       1.9835090
       6993.7100       1.8977980
       6995.1800       1.9147430
       6996.6500       1.9255820
       6998.1200       1.8796150
       6999.5900       1.8749630
       7001.0600       1.8726510
       7002.5300       1.8517290
       7004.0000       1.8508320
       7005.4700       1.8799790
       7006.9400       1.9302580
       7008.4100       1.9033720
       7009.8800       1.8204030
       7011.3500       1.8507730
       7012.8200       1.8685910
       7014.2900       1.8394970
       7015.7600       1.9964040
       7017.2300       2.0618900
       7018.7000       1.8122690
       7020.1700       1.7564430
       7021.6400       1.8482950
       7023.1100       1.8302530
       7024.5800       1.7874270
       7026.0500       1.7873490
       7027.5200       1.8038130
       7028.9900       1.7962270
       7030.4600       1.8059300
       7031.9300       1.8775980
       7033.4000       1.8731870
       7034.8700       1.8525400
       7036.3400       1.8430840
       7037.8100       1.8315320
       7039.2800       1.7957330
       7040.7500       1.8069290
       7042.2200       1.8361830
       7043.6900       1.8077510
       7045.1600       1.8649790
       7046.6300       1.8767170
       7048.1000       1.7387870
       7049.5700       1.6804080
       7051.0400       1.7317330
       7052.5100       1.7373630
       7053.9800       1.7287800
       7055.4500       1.7559090
       7056.9200       1.7723080
       7058.3900       1.7562400
       7059.8600       1.7571420
       7061.3300       1.8298680
       7062.8000       1.8578170
       7064.2700       1.7807130
       7065.7400       1.7540230
       7067.2100       1.7512380
       7068.6800       1.7721470
       7070.1500       1.8208720
       7071.6200       1.8219340
       7073.0900       1.8066220
       7074.5600       1.8157080
       7076.0300       1.8137900
       7077.5000       1.7472830
       7078.9700       1.7305190
       7080.4400       1.7659340
       7081.9100       1.7415270
       7083.3800       1.7422980
       7084.8500       1.7961870
       7086.3200       1.7721810
       7087.7900       1.7397490
       7089.2600       1.7812160
       7090.7300       1.7847300
       7092.2000       1.7577940
       7093.6700       1.7700740
       7095.1400       1.8102190
       7096.6100       1.8003570
       7098.0800       1.7808040
       7099.5500       1.8018750
       7101.0200       1.8099990
       7102.4900       1.8217190
       7103.9600       1.8295680
       7105.4300       1.8663040
       7106.9000       1.9096030
       7108.3700       1.8291420
       7109.8400       1.7465750
       7111.3100       1.7892040
       7112.7800       1.7810150
       7114.2500       1.6791730
       7115.7200       1.7200910
       7117.1900       1.8340880
       7118.6600       1.8017370
       7120.1300       1.7592610
       7121.6000       1.7673050
       7123.0700       1.7725160
       7124.5400       1.7755880
       7126.0100       1.7625390
       7127.4800       1.7480370
       7128.9500       1.7894750
       7130.4200       1.8773210
       7131.8900       1.8074490
       7133.3600       1.7008700
       7134.8300       1.7388430
       7136.3000       1.7540060
       7137.7700       1.7772260
       7139.2400       1.8367780
       7140.7100       1.8343060
       7142.1800       1.7624040
       7143.6500       1.7135640
       7145.1200       1.7374680
       7146.5900       1.7506750
       7148.0600       1.7071490
       7149.5300       1.6780800
       7151.0000       1.6742160
       7152.4700       1.6292430
       7153.9400       1.6430390
       7155.4100       1.7257230
       7156.8800       1.7511360
       7158.3500       1.7529800
       7159.8200       1.7521620
       7161.2900       1.7507540
       7162.7600       1.7510050
       7164.2300       1.7422870
       7165.7000       1.7621190
       7167.1700       1.7666300
       7168.6400       1.7614540
       7170.1100       1.7632590
       7171.5800       1.7833220
       7173.0500       1.7716390
       7174.5200       1.7060910
       7175.9900       1.7079070
       7177.4600       1.7258390
       7178.9300       1.6989080
       7180.4000       1.6557080
       7181.8700       1.7121940
       7183.3400       1.8067870
       7184.8100       1.7804600
       7186.2800       1.7555970
       7187.7500       1.8263060
       7189.2200       1.8446180
       7190.6900       1.7798300
       7192.1600       1.7770380
       7193.6300       1.8005680
       7195.1000       1.7893660
       7196.5700       1.8099150
       7198.0400       1.8030970
       7199.5100       1.8004520
       7200.9800       1.8307800
       7202.4500       1.8251100
       7203.9200       1.8666210
       7205.3900       1.9137200
       7206.8600       1.8708050
       7208.3300       1.8454470
       7209.8000       1.8034720
       7211.2700       1.8023380
       7212.7400       1.8585050
       7214.2100       1.8795390
       7215.6800       1.8934940
       7217.1500       1.8629840
       7218.6200       1.8731600
       7220.0900       1.8477630
       7221.5600       1.8905980
       7223.0300       1.9286240
       7224.5000       1.8321280
       7225.9700       1.7998680
       7227.4400       1.8171710
       7228.9100       1.8317950
       7230.3800       1.8446300
       7231.8500       1.9152840
       7233.3200       1.9372790
       7234.7900       1.9398280
       7236.2600       1.9322430
       7237.7300       1.9431190
       7239.2000       2.0467240
       7240.6700       2.1700650
       7242.1400       2.0928360
       7243.6100       1.9399050
       7245.0800       1.9209480
       7246.5500       1.9247170
       7248.0200       1.9425250
       7249.4900       1.9755200
       7250.9600       2.0478080
       7252.4300       2.0161320
       7253.9000       1.9368940
       7255.3700       1.9435710
       7256.8400       1.9399350
       7258.3100       1.8418950
       7259.7800       1.8211550
       7261.2500       1.8632190
       7262.7200       1.8914550
       7264.1900       1.9057030
       7265.6600       1.8903080
       7267.1300       1.9427450
       7268.6000       1.9728220
       7270.0700       1.9613740
       7271.5400       1.9902960
       7273.0100       2.0000350
       7274.4800       1.9660140
       7275.9500       1.8840770
       7277.4200       1.9439080
       7278.8900       1.9825220
       7280.3600       1.8994370
       7281.8300       1.8903170
       7283.3000       1.9135690
       7284.7700       1.9080600
       7286.2400       1.8590080
       7287.7100       1.8635320
       7289.1800       1.8969020
       7290.6500       1.8484020
       7292.1200       1.7782240
       7293.5900       1.8300040
       7295.0600       1.8580630
       7296.5300       1.7963060
       7298.0000       1.8286380
       7299.4700       1.7984510
       7300.9400       1.7510900
       7302.4100       1.7807560
       7303.8800       1.8145540
       7305.3500       1.7711650
       7306.8200       1.7446780
       7308.2900       1.8374120
       7309.7600       1.8318630
       7311.2300       1.7858600
       7312.7000       1.8183910
       7314.1700       1.8669840
       7315.6400       1.8876210
       7317.1100       1.8541640
       7318.5800       1.8430750
       7320.0500       1.8427990
       7321.5200       1.8176440
       7322.9900       1.8576780
       7324.4600       1.8813100
       7325.9300       1.8062750
       7327.4000       1.8288390
       7328.8700       1.8973830
       7330.3400       1.8158110
       7331.8100       1.8143340
       7333.2800       1.8904440
       7334.7500       1.8893330
       7336.2200       1.7610460
       7337.6900       1.7920190
       7339.1600       1.9152430
       7340.6300       1.8783390
       7342.1000       1.8246560
       7343.5700       1.7871420
       7345.0400       1.7492830
       7346.5100       1.7707090
       7347.9800       1.7834290
       7349.4500       1.7817680
       7350.9200       1.8764230
       7352.3900       1.8890330
       7353.8600       1.8143090
       7355.3300       1.8355560
       7356.8000       1.8607640
       7358.2700       1.8594650
       7359.7400       1.9008610
       7361.2100       1.8542090
       7362.6800       1.8687130
       7364.1500       1.9118890
       7365.6200       1.8694570
       7367.0900       1.8657090
       7368.5600       1.8627310
       7370.0300       1.8566150
       7371.5000       1.8658420
       7372.9700       1.8683610
       7374.4400       1.9417470
       7375.9100       1.9373710
       7377.3800       1.8326060
       7378.8500       1.8637760
       7380.3200       1.8233550
       7381.7900       1.7779940
       7383.2600       1.8378700
       7384.7300       1.9256810
       7386.2000       1.9454210
       7387.6700       1.8950910
       7389.1400       1.9293520
       7390.6100       1.9325650
       7392.0800       1.8749720
       7393.5500       1.8522570
       7395.0200       1.8577930
       7396.4900       1.8457150
       7397.9600       1.8358150
       7399.4300       1.8677230
       7400.9000       1.9596100
       7402.3700       1.9448770
       7403.8400       1.9181100
       7405.3100       1.9477680
       7406.7800       1.9719090
       7408.2500       1.9775060
       7409.7200       2.0244430
       7411.1900       2.0008170
       7412.6600       1.9326070
       7414.1300       1.9389250
       7415.6000       1.9236670
