Units are: observed wavelength (Ang), observed flux (10^-15 erg/s/cm^2/Ang)
       3700.0000       2.3871160
       3701.1999       2.3439600
       3702.3998       2.3700120
       3703.5997       2.4227820
       3704.7996       2.4803700
       3705.9995       2.4629920
       3707.1995       2.4829220
       3708.3994       2.5101120
       3709.5993       2.3604720
       3710.7992       2.4926220
       3711.9991       2.5347140
       3713.1990       2.5770760
       3714.3989       2.5346620
       3715.5989       2.4736920
       3716.7988       2.4796500
       3717.9987       2.5461080
       3719.1986       2.5514860
       3720.3985       2.6083820
       3721.5984       2.6194760
       3722.7984       2.6933220
       3723.9983       2.6210240
       3725.1982       2.4850720
       3726.3981       2.5262640
       3727.5980       2.6554420
       3728.7979       2.5631200
       3729.9978       2.5963060
       3731.1977       2.6708160
       3732.3976       2.7007200
       3733.5975       2.6340980
       3734.7974       2.7192720
       3735.9973       2.7017880
       3737.1972       2.6969120
       3738.3972       2.8213260
       3739.5971       2.6810800
       3740.7970       2.7067940
       3741.9969       2.8229540
       3743.1968       2.7926360
       3744.3968       2.7076160
       3745.5967       2.7074860
       3746.7966       2.7325280
       3747.9965       2.6518720
       3749.1964       2.6820840
       3750.3963       2.6239400
       3751.5962       2.5419620
       3752.7961       2.4720120
       3753.9961       2.4435800
       3755.1960       2.4814760
       3756.3959       2.4315760
       3757.5958       2.3838920
       3758.7957       2.3335900
       3759.9956       2.2416120
       3761.1955       2.2664420
       3762.3954       2.2887880
       3763.5953       2.2985580
       3764.7952       2.1585760
       3765.9951       2.1556600
       3767.1950       2.0472100
       3768.3949       1.9795270
       3769.5949       2.1015100
       3770.7948       2.0395540
       3771.9947       1.9211758
       3773.1947       1.8120672
       3774.3946       1.8540220
       3775.5945       1.7199090
       3776.7944       1.5720864
       3777.9943       1.5853788
       3779.1942       1.5522592
       3780.3941       1.4710934
       3781.5940       1.3416894
       3782.7939       1.3489844
       3783.9938       1.3779962
       3785.1938       1.2956780
       3786.3937       1.2864166
       3787.5936       1.2506012
       3788.7935       1.2692756
       3789.9934       1.1479206
       3791.1933       1.1868750
       3792.3932       1.1347948
       3793.5931       1.0874362
       3794.7930       1.0715774
       3795.9929       1.0912124
       3797.1928       1.0741350
       3798.3927       1.0886308
       3799.5926       1.1428784
       3800.7926       1.1135514
       3801.9926       1.0742010
       3803.1925       1.0690628
       3804.3924       1.0474152
       3805.5923       1.0868704
       3806.7922       1.0126978
       3807.9921      0.98998580
       3809.1920       1.0181254
       3810.3919       1.0762668
       3811.5918      0.98012180
       3812.7917      0.96689200
       3813.9916      0.99078640
       3815.1915      0.94217840
       3816.3915      0.99704300
       3817.5914       1.0035186
       3818.7913      0.95312000
       3819.9912      0.96295820
       3821.1911      0.96170540
       3822.3910      0.95771940
       3823.5909       1.0244580
       3824.7908       1.0239040
       3825.9907       1.0198736
       3827.1906       1.0672490
       3828.3905       1.0595138
       3829.5904      0.98281640
       3830.7904       1.0820822
       3831.9904       1.0837568
       3833.1903       1.1598810
       3834.3902       1.1134348
       3835.5901       1.2239798
       3836.7900       1.1465868
       3837.9899       1.1556082
       3839.1898       1.2485996
       3840.3897       1.3103898
       3841.5896       1.3493576
       3842.7895       1.3606836
       3843.9894       1.3573896
       3845.1893       1.3333598
       3846.3893       1.3303980
       3847.5892       1.3909894
       3848.7891       1.4105854
       3849.9890       1.4235278
       3851.1889       1.4259494
       3852.3888       1.4718194
       3853.5887       1.5161282
       3854.7886       1.5342728
       3855.9885       1.6064672
       3857.1884       1.6015194
       3858.3883       1.5799686
       3859.5883       1.6114158
       3860.7882       1.6809498
       3861.9882       1.7011296
       3863.1881       1.7481506
       3864.3880       1.7599698
       3865.5879       1.7985716
       3866.7878       1.8723552
       3867.9877       1.8473028
       3869.1876       1.8997852
       3870.3875       1.9646628
       3871.5874       1.9651828
       3872.7873       1.9693322
       3873.9872       1.9963668
       3875.1871       2.0189360
       3876.3870       2.0036720
       3877.5870       2.0996800
       3878.7869       2.1452240
       3879.9868       2.1305100
       3881.1867       2.1954060
       3882.3866       2.2196480
       3883.5865       2.2589240
       3884.7864       2.2805740
       3885.9863       2.3323720
       3887.1862       2.2264160
       3888.3862       2.3001400
       3889.5861       2.3463120
       3890.7860       2.3980800
       3891.9859       2.3605060
       3893.1859       2.3843960
       3894.3858       2.5199420
       3895.5857       2.5644920
       3896.7856       2.5648240
       3897.9855       2.6496800
       3899.1854       2.6381360
       3900.3853       2.6833140
       3901.5852       2.7777560
       3902.7851       2.7654200
       3903.9850       2.7875000
       3905.1849       2.8192420
       3906.3848       2.9480080
       3907.5847       2.9097840
       3908.7847       2.9757040
       3909.9846       2.8596800
       3911.1845       3.0629140
       3912.3844       3.1037400
       3913.5843       3.0690660
       3914.7842       3.0344240
       3915.9841       3.1349320
       3917.1841       3.1464440
       3918.3840       3.1640040
       3919.5839       3.2160340
       3920.7838       3.1937560
       3921.9837       3.2296440
       3923.1836       3.2342860
       3924.3836       3.2705640
       3925.5835       3.4075100
       3926.7834       3.4447660
       3927.9833       3.4511800
       3929.1832       3.4037820
       3930.3831       3.3330060
       3931.5830       3.3171480
       3932.7829       3.2904940
       3933.9828       3.4709580
       3935.1827       3.5047880
       3936.3826       3.4750060
       3937.5825       3.5798460
       3938.7824       3.6987240
       3939.9824       3.6607420
       3941.1823       3.7679400
       3942.3822       3.7320480
       3943.5821       3.6762840
       3944.7820       3.8075080
       3945.9820       3.8597600
       3947.1819       3.9338180
       3948.3818       3.7590900
       3949.5817       3.7020560
       3950.7816       3.7089440
       3951.9815       3.7305880
       3953.1814       3.8567620
       3954.3813       3.9397580
       3955.5813       3.9413100
       3956.7812       4.0412740
       3957.9811       4.1544980
       3959.1810       4.1528180
       3960.3809       4.1915100
       3961.5808       4.2613200
       3962.7807       4.3179580
       3963.9806       4.2557700
       3965.1805       4.2950840
       3966.3804       4.1468160
       3967.5803       4.1833860
       3968.7802       4.1627600
       3969.9801       4.2567660
       3971.1801       4.3468300
       3972.3800       4.4350680
       3973.5799       4.4122160
       3974.7799       4.5024720
       3975.9798       4.3924920
       3977.1797       4.4198460
       3978.3796       4.5151320
       3979.5795       4.4864460
       3980.7794       4.5393120
       3981.9793       4.4753020
       3983.1792       4.4744700
       3984.3791       4.3907660
       3985.5790       4.3683640
       3986.7790       4.3134040
       3987.9789       4.3369640
       3989.1788       4.3961060
       3990.3787       4.4485620
       3991.5786       4.5174180
       3992.7785       4.5060760
       3993.9784       4.4581380
       3995.1783       4.4104580
       3996.3782       4.4239180
       3997.5781       4.2865660
       3998.7780       4.2819580
       3999.9779       4.2602900
       4001.1779       4.3714700
       4002.3778       4.2118780
       4003.5778       4.2447500
       4004.7777       4.2260860
       4005.9776       4.0977760
       4007.1775       4.1529160
       4008.3774       4.1739780
       4009.5773       4.1352120
       4010.7772       4.1050040
       4011.9771       4.1325180
       4013.1770       4.1190900
       4014.3769       4.1028480
       4015.5768       4.0915020
       4016.7768       4.0641680
       4017.9767       4.0865540
       4019.1766       4.0005760
       4020.3765       3.9441820
       4021.5764       4.0116940
       4022.7763       3.9790380
       4023.9762       3.8746360
       4025.1761       3.8935740
       4026.3760       3.9682300
       4027.5759       3.8838540
       4028.7758       3.8209800
       4029.9757       3.7522720
       4031.1756       3.7792580
       4032.3757       3.6709860
       4033.5756       3.7434080
       4034.7755       3.7324000
       4035.9754       3.6865580
       4037.1753       3.6685880
       4038.3752       3.6888380
       4039.5751       3.6924180
       4040.7750       3.6292740
       4041.9749       3.5764940
       4043.1748       3.5871760
       4044.3747       3.6384940
       4045.5746       3.6435360
       4046.7745       3.6267800
       4047.9745       3.5833000
       4049.1744       3.4880400
       4050.3743       3.5165760
       4051.5742       3.4846060
       4052.7741       3.4119340
       4053.9740       3.4828140
       4055.1739       3.4085500
       4056.3738       3.4072120
       4057.5737       3.4280800
       4058.7736       3.3580180
       4059.9735       3.4534840
       4061.1735       3.3624780
       4062.3734       3.4008380
       4063.5734       3.3974760
       4064.7733       3.3470920
       4065.9732       3.2926320
       4067.1731       3.3087040
       4068.3730       3.2287700
       4069.5729       3.2880300
       4070.7728       3.2802540
       4071.9727       3.2475920
       4073.1726       3.2139540
       4074.3725       3.1911520
       4075.5724       3.1528440
       4076.7723       3.0952800
       4077.9722       3.0762240
       4079.1722       3.1162360
       4080.3721       3.1582540
       4081.5720       3.1249860
       4082.7719       3.0794360
       4083.9718       3.0052100
       4085.1717       3.0203440
       4086.3716       3.0175400
       4087.5715       2.9250180
       4088.7714       2.9008200
       4089.9714       2.8707840
       4091.1713       2.8098880
       4092.3712       2.9264940
       4093.5711       2.7954440
       4094.7711       2.8506160
       4095.9710       2.7851200
       4097.1709       2.7700740
       4098.3708       2.7827460
       4099.5707       2.6860400
       4100.7706       2.7751820
       4101.9705       2.6490980
       4103.1704       2.6792560
       4104.3703       2.6840000
       4105.5702       2.6690140
       4106.7701       2.6103080
       4107.9700       2.5847200
       4109.1699       2.6445560
       4110.3699       2.5819840
       4111.5698       2.5357000
       4112.7697       2.5277460
       4113.9696       2.5186400
       4115.1695       2.5429620
       4116.3694       2.5289300
       4117.5693       2.4911520
       4118.7693       2.4615280
       4119.9692       2.3943220
       4121.1691       2.3484680
       4122.3690       2.3677340
       4123.5689       2.3341620
       4124.7688       2.3618480
       4125.9688       2.3738960
       4127.1687       2.3813760
       4128.3686       2.3502000
       4129.5685       2.2431480
       4130.7684       2.2737400
       4131.9683       2.2284180
       4133.1682       2.2461240
       4134.3681       2.1820140
       4135.5680       2.1724360
       4136.7679       2.1805980
       4137.9678       2.1390700
       4139.1677       2.1593140
       4140.3677       2.1221320
       4141.5676       2.0614460
       4142.7675       2.0929600
       4143.9674       1.9786414
       4145.1673       2.0080160
       4146.3673       2.0159620
       4147.5672       2.0081640
       4148.7671       2.0160900
       4149.9670       2.0053500
       4151.1669       1.9752806
       4152.3668       1.9725222
       4153.5667       1.9509778
       4154.7666       1.9157246
       4155.9666       1.9148412
       4157.1665       1.8892938
       4158.3664       1.8749380
       4159.5663       1.8644142
       4160.7662       1.8798196
       4161.9661       1.8694822
       4163.1660       1.8697022
       4164.3659       1.8342620
       4165.5658       1.8096750
       4166.7657       1.8385824
       4167.9656       1.7937790
       4169.1655       1.7550632
       4170.3654       1.8221274
       4171.5654       1.8121404
       4172.7653       1.8641982
       4173.9652       1.8242586
       4175.1652       1.7700592
       4176.3651       1.7942302
       4177.5650       1.7249580
       4178.7649       1.7514620
       4179.9648       1.7823006
       4181.1647       1.7670864
       4182.3646       1.7731150
       4183.5645       1.7804974
       4184.7644       1.7608518
       4185.9643       1.7918276
       4187.1643       1.7758754
       4188.3642       1.7969578
       4189.5641       1.8206146
       4190.7640       1.8244676
       4191.9639       1.8020030
       4193.1638       1.8175594
       4194.3637       1.8155900
       4195.5636       1.8047588
       4196.7635       1.8483014
       4197.9634       1.8449116
       4199.1633       1.8227818
       4200.3632       1.8631800
       4201.5631       1.8692346
       4202.7631       1.8921570
       4203.9631       1.8870704
       4205.1630       1.8914560
       4206.3629       1.9356886
       4207.5628       1.9366246
       4208.7627       1.8856364
       4209.9626       1.9840584
       4211.1625       1.9750568
       4212.3624       2.0145500
       4213.5623       2.0156460
       4214.7622       1.9943374
       4215.9621       2.0010940
       4217.1620       1.9873828
       4218.3620       2.0275500
       4219.5619       2.0362800
       4220.7618       2.0884400
       4221.9617       2.1102380
       4223.1616       2.0774400
       4224.3615       2.0345120
       4225.5614       2.0724060
       4226.7613       2.0871360
       4227.9612       2.0994140
       4229.1611       2.0880780
       4230.3610       2.0488740
       4231.5609       2.0333900
       4232.7609       2.0806800
       4233.9609       2.0939920
       4235.1608       2.0909860
       4236.3607       2.1178240
       4237.5606       2.1336360
       4238.7605       2.0869640
       4239.9604       2.0758380
       4241.1603       2.1037500
       4242.3602       2.1272620
       4243.5601       2.1404380
       4244.7600       2.1239060
       4245.9599       2.1193020
       4247.1598       2.1172820
       4248.3597       2.1294940
       4249.5597       2.1290700
       4250.7596       2.0954820
       4251.9595       2.1322080
       4253.1594       2.1052980
       4254.3593       2.1163020
       4255.5592       2.0573480
       4256.7591       2.0715060
       4257.9590       2.1374160
       4259.1589       2.0952700
       4260.3588       2.1600080
       4261.5588       2.1525300
       4262.7587       2.1089480
       4263.9586       2.0782580
       4265.1586       2.1543360
       4266.3585       2.1464780
       4267.5584       2.1272420
       4268.7583       2.1269980
       4269.9582       2.1542820
       4271.1581       2.0986380
       4272.3580       2.1138460
       4273.5579       2.1713360
       4274.7578       2.1646420
       4275.9577       2.1128300
       4277.1576       2.1290380
       4278.3575       2.1493940
       4279.5574       2.1542760
       4280.7574       2.1639180
       4281.9573       2.1329560
       4283.1572       2.1315960
       4284.3571       2.1509560
       4285.5570       2.1825880
       4286.7569       2.1629820
       4287.9568       2.1329560
       4289.1567       2.1376360
       4290.3567       2.1628580
       4291.5566       2.2211200
       4292.7565       2.2262600
       4293.9564       2.1594780
       4295.1564       2.1705240
       4296.3563       2.2139600
       4297.5562       2.1779920
       4298.7561       2.1915360
       4299.9560       2.2530920
       4301.1559       2.2509300
       4302.3558       2.2722920
       4303.5557       2.1929280
       4304.7556       2.1952480
       4305.9555       2.2203920
       4307.1554       2.2317180
       4308.3553       2.2703840
       4309.5552       2.2193060
       4310.7552       2.2073980
       4311.9551       2.2729600
       4313.1550       2.2768180
       4314.3549       2.2758440
       4315.5548       2.2953680
       4316.7547       2.2981380
       4317.9546       2.2924960
       4319.1546       2.2868780
       4320.3545       2.3392300
       4321.5544       2.3259000
       4322.7543       2.3184320
       4323.9542       2.3107740
       4325.1541       2.3455080
       4326.3541       2.3617240
       4327.5540       2.3517020
       4328.7539       2.3680560
       4329.9538       2.3593580
       4331.1537       2.3687560
       4332.3536       2.3815540
       4333.5535       2.3652580
       4334.7534       2.3685320
       4335.9533       2.3826680
       4337.1532       2.3489660
       4338.3531       2.3330920
       4339.5530       2.3657680
       4340.7529       2.3652780
       4341.9529       2.3741280
       4343.1528       2.3851660
       4344.3527       2.3556900
       4345.5526       2.3533740
       4346.7525       2.3621040
       4347.9525       2.3431740
       4349.1524       2.3330960
       4350.3523       2.3675160
       4351.5522       2.3419080
       4352.7521       2.3673160
       4353.9520       2.3622220
       4355.1519       2.3972880
       4356.3518       2.3688480
       4357.5518       2.4849540
       4358.7517       2.4715920
       4359.9516       2.4368320
       4361.1515       2.4369840
       4362.3514       2.3392840
       4363.5513       2.2942100
       4364.7512       2.2837720
       4365.9511       2.2717800
       4367.1510       2.2836540
       4368.3509       2.2926560
       4369.5508       2.2304920
       4370.7507       2.2175660
       4371.9506       2.2053980
       4373.1506       2.1890980
       4374.3505       2.1922700
       4375.5504       2.1577360
       4376.7504       2.1365180
       4377.9503       2.1327060
       4379.1502       2.1192800
       4380.3501       2.0864580
       4381.5500       2.1101940
       4382.7499       2.1120600
       4383.9498       2.1108040
       4385.1497       2.1033840
       4386.3496       2.1065040
       4387.5495       2.1081540
       4388.7495       2.0591780
       4389.9494       2.0341200
       4391.1493       1.9843138
       4392.3492       2.0092660
       4393.5491       1.9805074
       4394.7490       1.9950258
       4395.9489       1.9988518
       4397.1488       1.9738844
       4398.3487       1.9796228
       4399.5486       1.9595954
       4400.7485       1.9611126
       4401.9484       1.9207586
       4403.1483       1.9301208
       4404.3483       1.9306906
       4405.5483       1.9103376
       4406.7482       1.9334184
       4407.9481       1.8866928
       4409.1480       1.9108538
       4410.3479       1.9328476
       4411.5478       1.8509440
       4412.7477       1.9048846
       4413.9476       1.9194856
       4415.1475       1.8777436
       4416.3474       1.8814672
       4417.5473       1.9064242
       4418.7472       1.9128794
       4419.9472       1.9182304
       4421.1471       1.8842284
       4422.3470       1.9021936
       4423.5469       1.9020714
       4424.7468       1.9046960
       4425.9467       1.9041076
       4427.1466       1.8807398
       4428.3465       1.9198352
       4429.5464       1.9317428
       4430.7463       1.9630938
       4431.9462       1.9610540
       4433.1461       1.9350052
       4434.3461       1.9548252
       4435.5461       2.0076780
       4436.7460       2.0015420
       4437.9459       1.9837676
       4439.1458       1.9636370
       4440.3457       2.0009940
       4441.5456       2.0385600
       4442.7455       2.0483160
       4443.9454       2.0379520
       4445.1453       2.0394520
       4446.3452       2.0579260
       4447.5451       2.0940540
       4448.7450       2.1030640
       4449.9450       2.0983280
       4451.1449       2.1561000
       4452.3448       2.1824880
       4453.5447       2.2174640
       4454.7446       2.2008560
       4455.9445       2.2225140
       4457.1444       2.2195960
       4458.3443       2.2390580
       4459.5442       2.2875700
       4460.7441       2.2396000
       4461.9440       2.2873220
       4463.1440       2.3388520
       4464.3439       2.3464240
       4465.5439       2.3232100
       4466.7438       2.3930820
       4467.9437       2.3993360
       4469.1436       2.4402840
       4470.3435       2.4139480
       4471.5434       2.3767800
       4472.7433       2.4644820
       4473.9432       2.4757120
       4475.1431       2.4923160
       4476.3430       2.5372000
       4477.5429       2.4941520
       4478.7428       2.5476580
       4479.9427       2.5763660
       4481.1427       2.5201820
       4482.3426       2.6123180
       4483.5425       2.5603440
       4484.7424       2.6179660
       4485.9423       2.6182360
       4487.1422       2.6419360
       4488.3421       2.6638980
       4489.5420       2.6754500
       4490.7419       2.6671420
       4491.9419       2.7046240
       4493.1418       2.7120080
       4494.3417       2.7278700
       4495.5416       2.7455740
       4496.7416       2.7631640
       4497.9415       2.7566400
       4499.1414       2.7974300
       4500.3413       2.8197980
       4501.5412       2.8453860
       4502.7411       2.8098940
       4503.9410       2.8421740
       4505.1409       2.8481380
       4506.3408       2.8576040
       4507.5407       2.9031880
       4508.7406       2.9231680
       4509.9405       2.9514920
       4511.1404       2.9250480
       4512.3404       2.9577060
       4513.5403       3.0061320
       4514.7402       3.0384200
       4515.9401       3.0710840
       4517.1400       3.1192660
       4518.3399       3.1423820
       4519.5398       3.1708520
       4520.7398       3.2198800
       4521.9397       3.1994260
       4523.1396       3.1631340
       4524.3395       3.2136960
       4525.5394       3.3007220
       4526.7393       3.3515920
       4527.9393       3.3282680
       4529.1392       3.3582360
       4530.3391       3.4274540
       4531.5390       3.4500440
       4532.7389       3.4619580
       4533.9388       3.5121040
       4535.1387       3.5376220
       4536.3386       3.6009240
       4537.5385       3.6129380
       4538.7384       3.7178580
       4539.9383       3.7301880
       4541.1382       3.7490340
       4542.3381       3.7902300
       4543.5381       3.8173940
       4544.7380       3.8673220
       4545.9379       4.0228200
       4547.1378       3.9888900
       4548.3378       4.0136160
       4549.5377       4.0884860
       4550.7376       4.1931880
       4551.9375       4.1737960
       4553.1374       4.2033340
       4554.3373       4.2399100
       4555.5372       4.2451680
       4556.7371       4.3284320
       4557.9370       4.3621060
       4559.1370       4.4617320
       4560.3369       4.3889180
       4561.5368       4.4688500
       4562.7367       4.5199180
       4563.9366       4.5731200
       4565.1365       4.5921900
       4566.3364       4.6727180
       4567.5363       4.6125560
       4568.7362       4.7108160
       4569.9361       4.7776200
       4571.1360       4.7692240
       4572.3359       4.8272000
       4573.5358       4.7586480
       4574.7358       4.8873640
       4575.9357       4.9728880
       4577.1357       4.9827840
       4578.3356       4.9564840
       4579.5355       4.9023640
       4580.7354       5.0638260
       4581.9353       5.0762960
       4583.1352       5.1070620
       4584.3351       5.0411500
       4585.5350       5.0952440
       4586.7349       5.1154020
       4587.9348       5.0977500
       4589.1348       5.0790840
       4590.3347       5.0931760
       4591.5346       5.0726820
       4592.7345       5.0895400
       4593.9344       5.1197260
       4595.1343       5.1252700
       4596.3342       5.0968880
       4597.5341       5.0309880
       4598.7340       4.9641540
       4599.9339       4.9585140
       4601.1338       5.0101180
       4602.3337       5.0115240
       4603.5336       4.9792960
       4604.7336       4.8965320
       4605.9336       4.9294420
       4607.1335       4.9539480
       4608.3334       4.8938520
       4609.5333       4.8436100
       4610.7332       4.8379200
       4611.9331       4.8366180
       4613.1330       4.8413420
       4614.3329       4.8036400
       4615.5328       4.7690200
       4616.7327       4.7415360
       4617.9326       4.6855240
       4619.1325       4.6543280
       4620.3325       4.6057260
       4621.5324       4.6222140
       4622.7323       4.5916040
       4623.9322       4.5574120
       4625.1321       4.5961280
       4626.3320       4.6110060
       4627.5319       4.5021080
       4628.7318       4.4753000
       4629.9317       4.4846880
       4631.1316       4.3960820
       4632.3315       4.4628260
       4633.5314       4.4230140
       4634.7314       4.3875240
       4635.9314       4.3557940
       4637.1313       4.2934100
       4638.3312       4.3289220
       4639.5311       4.2992160
       4640.7310       4.2613080
       4641.9309       4.2494460
       4643.1308       4.2252680
       4644.3307       4.2584000
       4645.5306       4.2585760
       4646.7305       4.2740900
       4647.9304       4.1966020
       4649.1303       4.1730820
       4650.3302       4.2065920
       4651.5302       4.1687040
       4652.7301       4.1579060
       4653.9300       4.1716600
       4655.1299       4.1115340
       4656.3298       4.1141000
       4657.5297       4.1822880
       4658.7296       4.1003480
       4659.9295       4.0583960
       4661.1294       3.9538860
       4662.3293       3.9834960
       4663.5293       3.9469640
       4664.7292       3.8815120
       4665.9291       3.8580680
       4667.1291       3.8236360
       4668.3290       3.8526440
       4669.5289       3.7893620
       4670.7288       3.8051280
       4671.9287       3.7524560
       4673.1286       3.7437840
       4674.3285       3.7360800
       4675.5284       3.6080480
       4676.7283       3.6645500
       4677.9282       3.6374220
       4679.1281       3.5365860
       4680.3280       3.5858120
       4681.5279       3.4661020
       4682.7279       3.5213240
       4683.9278       3.4292560
       4685.1277       3.4424380
       4686.3276       3.4216600
       4687.5275       3.4284320
       4688.7274       3.3256920
       4689.9273       3.3535180
       4691.1272       3.3086180
       4692.3272       3.3335280
       4693.5271       3.3112660
       4694.7270       3.3021860
       4695.9269       3.3262380
       4697.1268       3.2610860
       4698.3268       3.2564560
       4699.5267       3.2258280
       4700.7266       3.2679920
       4701.9265       3.2268340
       4703.1264       3.1818320
       4704.3263       3.1885280
       4705.5262       3.1555920
       4706.7261       3.1596460
       4707.9260       3.1921940
       4709.1259       3.1807820
       4710.3258       3.1687860
       4711.5257       3.2058700
       4712.7256       3.1491420
       4713.9256       3.1431520
       4715.1255       3.1663860
       4716.3254       3.1668200
       4717.5253       3.1431640
       4718.7252       3.1389620
       4719.9251       3.1487780
       4721.1251       3.1243260
       4722.3250       3.1171920
       4723.5249       3.1140880
       4724.7248       3.1405860
       4725.9247       3.1511700
       4727.1246       3.1700040
       4728.3245       3.1595420
       4729.5245       3.1370700
       4730.7244       3.1438400
       4731.9243       3.1944620
       4733.1242       3.1813860
       4734.3241       3.1676900
       4735.5240       3.1526060
       4736.7239       3.1258220
       4737.9238       3.1377660
       4739.1237       3.1324300
       4740.3236       3.1169340
       4741.5235       3.1061040
       4742.7234       3.0579680
       4743.9234       3.0062620
       4745.1233       2.9994740
       4746.3232       3.0189160
       4747.5231       3.0304740
       4748.7230       3.0508380
       4749.9230       3.0201120
       4751.1229       2.9808960
       4752.3228       2.9465700
       4753.5227       2.8848220
       4754.7226       2.8951820
       4755.9225       2.9210900
       4757.1224       2.8575860
       4758.3223       2.8254540
       4759.5223       2.8044500
       4760.7222       2.8066000
       4761.9221       2.7893300
       4763.1220       2.7331180
       4764.3219       2.7190640
       4765.5218       2.7467440
       4766.7217       2.7475820
       4767.9216       2.7147820
       4769.1215       2.6876120
       4770.3214       2.6769920
       4771.5213       2.6844140
       4772.7212       2.6488140
       4773.9211       2.6453500
       4775.1211       2.6517860
       4776.3210       2.6502540
       4777.5209       2.6268180
       4778.7209       2.6163460
       4779.9208       2.6702980
       4781.1207       2.6087260
       4782.3206       2.5921240
       4783.5205       2.5737740
       4784.7204       2.5851240
       4785.9203       2.5975520
       4787.1202       2.5861380
       4788.3201       2.6146460
       4789.5200       2.6213060
       4790.7200       2.6063120
       4791.9199       2.6296580
       4793.1198       2.6437220
       4794.3197       2.6490760
       4795.5196       2.6132360
       4796.7195       2.6765600
       4797.9194       2.7159700
       4799.1193       2.6902220
       4800.3192       2.6976320
       4801.5191       2.7754460
       4802.7190       2.7618600
       4803.9189       2.7826660
       4805.1188       2.7885600
       4806.3188       2.8253080
       4807.5188       2.8155780
       4808.7187       2.8669680
       4809.9186       2.8627820
       4811.1185       2.8628240
       4812.3184       2.8914400
       4813.5183       2.9385420
       4814.7182       2.9412640
       4815.9181       3.0291440
       4817.1180       3.0117600
       4818.3179       3.0099140
       4819.5178       3.0376760
       4820.7177       2.9949800
       4821.9177       3.0530300
       4823.1176       3.0582520
       4824.3175       3.0120320
       4825.5174       3.0593200
       4826.7173       3.0349700
       4827.9172       3.0739220
       4829.1171       3.0309540
       4830.3170       3.0519760
       4831.5169       3.0309040
       4832.7168       2.9959340
       4833.9167       2.9841760
       4835.1166       3.0110220
       4836.3166       2.9432700
       4837.5166       2.9528940
       4838.7165       2.8956580
       4839.9164       2.8818640
       4841.1163       2.8706760
       4842.3162       2.8310280
       4843.5161       2.8245840
       4844.7160       2.8026860
       4845.9159       2.7685620
       4847.1158       2.8189900
       4848.3157       2.7556320
       4849.5156       2.7423260
       4850.7155       2.7197860
       4851.9154       2.6527700
       4853.1154       2.6741600
       4854.3153       2.6984340
       4855.5152       2.6587160
       4856.7151       2.6534220
       4857.9150       2.6420260
       4859.1149       2.6269120
       4860.3148       2.5797440
       4861.5147       2.6211880
       4862.7146       2.5747240
       4863.9145       2.5690400
       4865.1145       2.6120820
       4866.3144       2.5828880
       4867.5143       2.5833380
       4868.7143       2.5703700
       4869.9142       2.5728920
       4871.1141       2.5979180
       4872.3140       2.5817260
       4873.5139       2.5538520
       4874.7138       2.5941240
       4875.9137       2.6391280
       4877.1136       2.6119920
       4878.3135       2.5510020
       4879.5134       2.6266860
       4880.7133       2.6536040
       4881.9132       2.6302100
       4883.1131       2.7028360
       4884.3131       2.6918500
       4885.5130       2.6744500
       4886.7129       2.6603760
       4887.9128       2.7026100
       4889.1127       2.7600240
       4890.3126       2.7534120
       4891.5125       2.8021500
       4892.7124       2.8079520
       4893.9124       2.8070080
       4895.1123       2.8133720
       4896.3122       2.8471660
       4897.5121       2.9408980
       4898.7121       2.9158640
       4899.9120       2.9550680
       4901.1119       2.9758960
       4902.3118       3.0021300
       4903.5117       3.0324140
       4904.7116       3.0729480
       4905.9115       3.1217880
       4907.1114       3.1313160
       4908.3113       3.1701500
       4909.5112       3.2380340
       4910.7111       3.3037440
       4911.9110       3.3011840
       4913.1109       3.3028480
       4914.3109       3.3490560
       4915.5108       3.4537880
       4916.7107       3.4331620
       4917.9106       3.4607100
       4919.1105       3.5288640
       4920.3104       3.4473540
       4921.5103       3.5706460
       4922.7103       3.6440300
       4923.9102       3.6787700
       4925.1101       3.6264920
       4926.3100       3.6868340
       4927.5099       3.6614600
       4928.7098       3.6914500
       4929.9098       3.7633260
       4931.1097       3.7968260
       4932.3096       3.7296080
       4933.5095       3.8227940
       4934.7094       3.8497920
       4935.9093       3.8359520
       4937.1092       3.8221500
       4938.3091       3.9082700
       4939.5090       3.8637100
       4940.7089       3.8955840
       4941.9088       3.9481140
       4943.1087       3.9604060
       4944.3086       3.8905580
       4945.5086       3.9481100
       4946.7085       3.9481420
       4947.9084       3.9053100
       4949.1083       3.8962720
       4950.3083       3.9026060
       4951.5082       3.9237060
       4952.7081       3.9385960
       4953.9080       3.8389400
       4955.1079       3.8942140
       4956.3078       4.0742820
       4957.5077       3.9804680
       4958.7076       3.9491400
       4959.9075       3.9844480
       4961.1075       3.7872940
       4962.3074       3.7510200
       4963.5073       3.7161880
       4964.7072       3.7231280
       4965.9071       3.6969720
       4967.1070       3.7438840
       4968.3069       3.7071320
       4969.5068       3.6531280
       4970.7067       3.6434880
       4971.9066       3.6511640
       4973.1065       3.5594140
       4974.3064       3.4714320
       4975.5063       3.4681240
       4976.7063       3.5134920
       4977.9062       3.4416200
       4979.1062       3.4052920
       4980.3061       3.3262840
       4981.5060       3.2815120
       4982.7059       3.2916580
       4983.9058       3.2610420
       4985.1057       3.2213520
       4986.3056       3.1792660
       4987.5055       3.1089260
       4988.7054       3.1164740
       4989.9053       3.0430540
       4991.1052       3.0729360
       4992.3052       2.9807640
       4993.5051       3.0181420
       4994.7050       2.9248900
       4995.9049       2.9645240
       4997.1048       2.9231940
       4998.3047       2.8428760
       4999.5046       2.8575680
       5000.7045       2.8460420
       5001.9044       2.8317740
       5003.1043       2.7978920
       5004.3042       2.8332620
       5005.5041       2.7114260
       5006.7040       2.7432220
       5007.9041       2.7055680
       5009.1040       2.6450980
       5010.3039       2.6370460
       5011.5038       2.6406200
       5012.7037       2.5850120
       5013.9036       2.5726760
       5015.1035       2.5764240
       5016.3034       2.5466660
       5017.5033       2.5230000
       5018.7032       2.5072100
       5019.9031       2.5008740
       5021.1030       2.4540480
       5022.3029       2.4489680
       5023.5029       2.4323560
       5024.7028       2.4520480
       5025.9027       2.4439380
       5027.1026       2.4890220
       5028.3025       2.4832740
       5029.5024       2.4906260
       5030.7023       2.4587980
       5031.9022       2.4676160
       5033.1021       2.4201600
       5034.3020       2.4205600
       5035.5019       2.3712440
       5036.7019       2.3123040
       5037.9019       2.3329900
       5039.1018       2.3524920
       5040.3017       2.3376280
       5041.5016       2.3565180
       5042.7015       2.3450860
       5043.9014       2.3474780
       5045.1013       2.3352440
       5046.3012       2.3219220
       5047.5011       2.3458180
       5048.7010       2.3260640
       5049.9009       2.3180580
       5051.1008       2.3201140
       5052.3007       2.3294540
       5053.5007       2.3517760
       5054.7006       2.3256700
       5055.9005       2.3486800
       5057.1004       2.3978920
       5058.3003       2.3789460
       5059.5002       2.3833820
       5060.7001       2.3702380
       5061.9000       2.3876740
       5063.0999       2.3810120
       5064.2998       2.3983080
       5065.4998       2.4454400
       5066.6997       2.4662860
       5067.8996       2.4776540
       5069.0996       2.4531080
       5070.2995       2.4781680
       5071.4994       2.5100580
       5072.6993       2.4881140
       5073.8992       2.5210480
       5075.0991       2.5332120
       5076.2990       2.5496840
       5077.4989       2.5815580
       5078.6988       2.5815920
       5079.8987       2.5292540
       5081.0986       2.5133260
       5082.2985       2.6104220
       5083.4984       2.6507820
       5084.6984       2.6224360
       5085.8983       2.6790320
       5087.0982       2.6881720
       5088.2981       2.6422760
       5089.4980       2.6603380
       5090.6979       2.6982440
       5091.8978       2.7044580
       5093.0977       2.6963720
       5094.2977       2.7172140
       5095.4976       2.7537540
       5096.6975       2.7835720
       5097.8974       2.8002960
       5099.0973       2.7937520
       5100.2973       2.7790540
       5101.4972       2.8026420
       5102.6971       2.8221160
       5103.8970       2.8301820
       5105.0969       2.8642420
       5106.2968       2.9128680
       5107.4967       2.8642880
       5108.6966       2.8729240
       5109.8965       2.9037600
       5111.0964       2.9043640
       5112.2963       2.9109600
       5113.4962       2.9138120
       5114.6961       2.9260040
       5115.8961       2.9719320
       5117.0960       2.9695740
       5118.2959       2.9305300
       5119.4958       2.9259580
       5120.6957       2.9511620
       5121.8956       2.9735240
       5123.0956       3.0015800
       5124.2955       3.0086060
       5125.4954       2.9908180
       5126.6953       3.0031440
       5127.8952       3.0216300
       5129.0951       3.0250080
       5130.2950       3.0160060
       5131.4950       3.0340660
       5132.6949       3.0251900
       5133.8948       3.0398660
       5135.0947       3.0745780
       5136.2946       3.0621940
       5137.4945       3.0670240
       5138.6944       3.0690800
       5139.8943       3.0623700
       5141.0942       3.0695260
       5142.2941       3.0413620
       5143.4940       3.0322540
       5144.6939       3.0555000
       5145.8938       3.0763060
       5147.0938       3.0701100
       5148.2937       3.0481940
       5149.4936       3.0797620
       5150.6935       3.0861940
       5151.8935       3.0726260
       5153.0934       3.0860060
       5154.2933       3.0758600
       5155.4932       3.0278740
       5156.6931       3.0105060
       5157.8930       3.0639160
       5159.0929       3.0767220
       5160.2928       3.0346920
       5161.4927       3.0720420
       5162.6927       3.0848560
       5163.8926       3.0951680
       5165.0925       3.0563640
       5166.2924       3.0532540
       5167.4923       3.0794220
       5168.6922       3.0868560
       5169.8921       3.0813480
       5171.0920       3.0787220
       5172.2919       3.1042900
       5173.4918       3.1126000
       5174.6917       3.1182160
       5175.8916       3.1703320
       5177.0915       3.1729060
       5178.2915       3.1512500
       5179.4914       3.1518500
       5180.6914       3.1735780
       5181.8913       3.1995980
       5183.0912       3.2130880
       5184.2911       3.2343560
       5185.4910       3.2133820
       5186.6909       3.2613320
       5187.8908       3.2815320
       5189.0907       3.2566780
       5190.2906       3.3059220
       5191.4905       3.3263620
       5192.6905       3.3143840
       5193.8904       3.3212300
       5195.0903       3.3137320
       5196.2902       3.3287380
       5197.4901       3.3945340
       5198.6900       3.3985240
       5199.8899       3.3893360
       5201.0898       3.4362640
       5202.2897       3.4217580
       5203.4896       3.4559540
       5204.6895       3.4524380
       5205.8894       3.4973920
       5207.0893       3.4592820
       5208.2893       3.5034020
       5209.4893       3.5167020
       5210.6892       3.5167400
       5211.8891       3.5866280
       5213.0890       3.5564080
       5214.2889       3.5488900
       5215.4888       3.6362380
       5216.6887       3.6188600
       5217.8886       3.6702620
       5219.0885       3.6860520
       5220.2884       3.7396360
       5221.4883       3.7617580
       5222.6882       3.7438900
       5223.8882       3.7280580
       5225.0881       3.7931720
       5226.2880       3.7821820
       5227.4879       3.8614420
       5228.6878       3.8461280
       5229.8877       3.8585000
       5231.0876       3.8963060
       5232.2875       3.9407580
       5233.4874       3.9742140
       5234.6873       3.9233920
       5235.8872       3.9339980
       5237.0871       4.0018940
       5238.2871       4.0331480
       5239.4871       4.0308560
       5240.6870       4.0365600
       5241.8869       4.0375640
       5243.0868       4.0445380
       5244.2867       4.0932300
       5245.4866       4.0767440
       5246.6865       4.1074020
       5247.8864       4.1365480
       5249.0863       4.1387920
       5250.2862       4.1513340
       5251.4861       4.2288220
       5252.6860       4.2351040
       5253.8859       4.2136200
       5255.0859       4.2542700
       5256.2858       4.2341620
       5257.4857       4.2778540
       5258.6856       4.3305500
       5259.8855       4.3165320
       5261.0854       4.3180480
       5262.2853       4.3167860
       5263.4852       4.3498720
       5264.6851       4.3547260
       5265.8850       4.3847340
       5267.0850       4.4356380
       5268.2849       4.4199920
       5269.4848       4.4484760
       5270.6848       4.5006560
       5271.8847       4.5156540
       5273.0846       4.5124900
       5274.2845       4.5120800
       5275.4844       4.5480740
       5276.6843       4.5651660
       5277.8842       4.5990740
       5279.0841       4.6107140
       5280.2840       4.5904460
       5281.4839       4.6073940
       5282.6838       4.6359920
       5283.8837       4.6404680
       5285.0836       4.6055620
       5286.2836       4.6196520
       5287.4835       4.6926400
       5288.6834       4.7529280
       5289.8833       4.7525560
       5291.0832       4.7231640
       5292.2831       4.7617300
       5293.4830       4.7771120
       5294.6829       4.7894700
       5295.8829       4.8451080
       5297.0828       4.8322320
       5298.2827       4.8570420
       5299.4826       4.9235640
       5300.6825       4.9000260
       5301.8825       4.8988240
       5303.0824       4.9048320
       5304.2823       4.8489240
       5305.4822       4.8818540
       5306.6821       4.9021100
       5307.8820       4.9452360
       5309.0819       4.9283100
       5310.2818       4.9216720
       5311.4817       4.9585060
       5312.6816       4.9227200
       5313.8815       4.9226320
       5315.0814       4.8948400
       5316.2813       4.9007020
       5317.4813       4.8625160
       5318.6812       4.9400500
       5319.8811       4.9253460
       5321.0810       4.9410620
       5322.2809       4.8730020
       5323.4808       4.8416560
       5324.6808       4.8675920
       5325.8807       4.9249260
       5327.0806       4.7946300
       5328.2805       4.7794220
       5329.4804       4.8598220
       5330.6803       4.7655640
       5331.8803       4.8489060
       5333.0802       4.7917500
       5334.2801       4.7835680
       5335.4800       4.7219900
       5336.6799       4.6799020
       5337.8798       4.7088480
       5339.0797       4.6881740
       5340.2796       4.7023560
       5341.4795       4.5868120
       5342.6794       4.5740460
       5343.8793       4.6315260
       5345.0792       4.5290440
       5346.2791       4.5010760
       5347.4791       4.5553880
       5348.6790       4.5138100
       5349.8789       4.5129360
       5351.0788       4.5071960
       5352.2788       4.4325140
       5353.4787       4.4398480
       5354.6786       4.3944860
       5355.8785       4.3635700
       5357.0784       4.3656660
       5358.2783       4.4003540
       5359.4782       4.3672840
       5360.6781       4.3163340
       5361.8780       4.3443180
       5363.0780       4.2934020
       5364.2779       4.3342020
       5365.4778       4.3190160
       5366.6777       4.2647960
       5367.8776       4.2295240
       5369.0775       4.2820420
       5370.2774       4.2698420
       5371.4773       4.2700500
       5372.6772       4.2708560
       5373.8771       4.2509300
       5375.0770       4.2610820
       5376.2769       4.3134220
       5377.4768       4.2916360
       5378.6768       4.3140060
       5379.8767       4.3341940
       5381.0767       4.3312160
       5382.2766       4.3648600
       5383.4765       4.3433300
       5384.6764       4.3284200
       5385.8763       4.3325420
       5387.0762       4.3593700
       5388.2761       4.3942740
       5389.4760       4.4086200
       5390.6759       4.4379600
       5391.8758       4.4548040
       5393.0757       4.4567320
       5394.2757       4.4325640
       5395.4756       4.4194240
       5396.6755       4.4662380
       5397.8754       4.5208700
       5399.0753       4.5332420
       5400.2752       4.5262780
       5401.4751       4.5606500
       5402.6750       4.5465740
       5403.8749       4.5857260
       5405.0748       4.6381920
       5406.2747       4.6245800
       5407.4746       4.6491340
       5408.6745       4.7234900
       5409.8746       4.7661000
       5411.0745       4.7481720
       5412.2744       4.7516700
       5413.4743       4.8148820
       5414.6742       4.8750560
       5415.8741       4.9248080
       5417.0740       4.9157980
       5418.2739       4.9830520
       5419.4738       5.0312000
       5420.6737       5.0298080
       5421.8736       5.0132960
       5423.0735       5.0091880
       5424.2734       5.1001560
       5425.4734       5.1233700
       5426.6733       5.1885760
       5427.8732       5.1877800
       5429.0731       5.2078200
       5430.2730       5.2331340
       5431.4729       5.2781380
       5432.6728       5.3191860
       5433.8727       5.3135320
       5435.0726       5.3627960
       5436.2725       5.3592300
       5437.4724       5.3609300
       5438.6724       5.4016740
       5439.8723       5.3826960
       5441.0723       5.3370600
       5442.2722       5.3531620
       5443.4721       5.3746180
       5444.6720       5.4596140
       5445.8719       5.4049740
       5447.0718       5.4296740
       5448.2717       5.4455560
       5449.4716       5.5269640
       5450.6715       5.4975360
       5451.8714       5.4617360
       5453.0713       5.4457340
       5454.2712       5.4215780
       5455.4711       5.4127380
       5456.6711       5.4591900
       5457.8710       5.4893980
       5459.0709       5.4802440
       5460.2708       5.4905240
       5461.4707       5.5073240
       5462.6706       5.4700040
       5463.8705       5.5153300
       5465.0704       5.4541120
       5466.2703       5.4153280
       5467.4703       5.3632480
       5468.6702       5.3834680
       5469.8701       5.3805520
       5471.0700       5.3155420
       5472.2700       5.3018060
       5473.4699       5.2706660
       5474.6698       5.2554160
       5475.8697       5.2349280
       5477.0696       5.1926380
       5478.2695       5.1956580
       5479.4694       5.1662940
       5480.6693       5.1389960
       5481.8692       5.1604780
       5483.0691       5.1325980
       5484.2690       5.1222160
       5485.4689       5.1403540
       5486.6689       5.1111880
       5487.8688       5.0957760
       5489.0687       5.0602400
       5490.2686       5.0135640
       5491.4685       5.0466900
       5492.6684       5.0235340
       5493.8683       4.9862040
       5495.0682       4.9757540
       5496.2682       4.9439100
       5497.4681       4.9501720
       5498.6680       4.9413480
       5499.8679       4.9183780
       5501.0678       4.9161240
       5502.2678       4.9495800
       5503.4677       4.9454820
       5504.6676       4.9144500
       5505.8675       4.8746080
       5507.0674       4.8220620
       5508.2673       4.8479720
       5509.4672       4.8400220
       5510.6671       4.8485060
       5511.8670       4.8913620
       5513.0669       4.8773880
       5514.2668       4.7941400
       5515.4667       4.7705400
       5516.6666       4.7692580
       5517.8666       4.8155360
       5519.0665       4.7799160
       5520.2664       4.7662160
       5521.4663       4.8121040
       5522.6662       4.7754340
       5523.8661       4.7329660
       5525.0661       4.7874620
       5526.2660       4.8204200
       5527.4659       4.8142040
       5528.6658       4.7329260
       5529.8657       4.7074560
       5531.0656       4.7666260
       5532.2655       4.7318160
       5533.4655       4.7179160
       5534.6654       4.7228380
       5535.8653       4.7202520
       5537.0652       4.6985760
       5538.2651       4.7492420
       5539.4650       4.7325920
       5540.6649       4.7592800
       5541.8648       4.8064660
       5543.0647       4.7876640
       5544.2646       4.7651040
       5545.4645       4.7965160
       5546.6644       4.7803440
       5547.8643       4.7870720
       5549.0643       4.8030660
       5550.2642       4.8126620
       5551.4641       4.8068400
       5552.6640       4.7753480
       5553.8640       4.7731720
       5555.0639       4.8036480
       5556.2638       4.8133480
       5557.4637       4.8243760
       5558.6636       4.8624220
       5559.8635       4.8709700
       5561.0634       4.8443680
       5562.2633       4.8526480
       5563.4632       4.8854860
       5564.6632       4.9182960
       5565.8631       4.9115420
       5567.0630       4.8811000
       5568.2629       4.9080260
       5569.4628       4.8924040
       5570.6627       4.9559020
       5571.8626       4.9481300
       5573.0625       5.0958840
       5574.2624       5.5632960
       5575.4623       6.1936380
       5576.6622       6.6963320
       5577.8621       6.7713300
       5579.0620       6.4465980
       5580.2620       5.8164320
       5581.4619       5.3253260
       5582.6619       5.1201380
       5583.8618       5.0664560
       5585.0617       5.0808700
       5586.2616       5.1010040
       5587.4615       5.0294980
       5588.6614       5.1082940
       5589.8613       5.0552680
       5591.0612       5.0819440
       5592.2611       5.0977980
       5593.4610       5.0710380
       5594.6609       5.1166000
       5595.8609       5.0703560
       5597.0608       5.0599800
       5598.2607       5.1214600
       5599.4606       5.0414900
       5600.6605       5.1210040
       5601.8604       5.1828960
       5603.0603       5.1424380
       5604.2602       5.1169420
       5605.4601       5.0897040
       5606.6600       5.0890460
       5607.8599       5.1284080
       5609.0598       5.1535320
       5610.2597       5.1128160
       5611.4598       5.0519520
       5612.6597       5.0509740
       5613.8596       5.0693160
       5615.0595       5.1028440
       5616.2594       5.0214320
       5617.4593       5.0290860
       5618.6592       5.0601760
       5619.8591       5.0259780
       5621.0590       5.0346360
       5622.2589       5.0112760
       5623.4588       5.0200180
       5624.6587       5.0051860
       5625.8586       4.9437760
       5627.0586       4.9455780
       5628.2585       4.9416100
       5629.4584       4.9164840
       5630.6583       4.8818240
       5631.8582       4.8532260
       5633.0581       4.8652520
       5634.2580       4.8202320
       5635.4579       4.7870740
       5636.6578       4.7868280
       5637.8577       4.8232680
       5639.0576       4.8099540
       5640.2576       4.7627240
       5641.4576       4.7870080
       5642.6575       4.7426580
       5643.8574       4.7066940
       5645.0573       4.7336780
       5646.2572       4.7178860
       5647.4571       4.6813800
       5648.6570       4.5689720
       5649.8569       4.5443680
       5651.0568       4.5409340
       5652.2567       4.5089400
       5653.4566       4.5185880
       5654.6565       4.5059700
       5655.8564       4.4914340
       5657.0564       4.4740960
       5658.2563       4.4545380
       5659.4562       4.3926680
       5660.6561       4.3404420
       5661.8560       4.3763980
       5663.0559       4.3541200
       5664.2558       4.4115160
       5665.4557       4.3302160
       5666.6556       4.3192420
       5667.8555       4.2129040
       5669.0555       4.2311220
       5670.2554       4.2205380
       5671.4553       4.1307280
       5672.6553       4.1695060
       5673.8552       4.1601800
       5675.0551       4.1422380
       5676.2550       4.1485300
       5677.4549       4.1107480
       5678.6548       4.0611100
       5679.8547       4.0640140
       5681.0546       4.0489940
       5682.2545       4.0051000
       5683.4544       4.0498860
       5684.6543       4.0594500
       5685.8542       4.0194380
       5687.0541       3.9894600
       5688.2541       4.0159000
       5689.4540       3.9682080
       5690.6539       3.9242960
       5691.8538       3.9096740
       5693.0537       3.8887400
       5694.2536       3.9050240
       5695.4535       3.8995020
       5696.6534       3.8719280
       5697.8534       3.8645040
       5699.0533       3.8463080
       5700.2532       3.7830320
       5701.4531       3.7597640
       5702.6530       3.7728220
       5703.8530       3.7656320
       5705.0529       3.7509940
       5706.2528       3.7286680
       5707.4527       3.7112200
       5708.6526       3.7238320
       5709.8525       3.6970260
       5711.0524       3.7320380
       5712.2523       3.6950340
       5713.4522       3.6951400
       5714.6521       3.7007620
       5715.8520       3.6766180
       5717.0519       3.6291400
       5718.2518       3.6688300
       5719.4518       3.6422040
       5720.6517       3.6172140
       5721.8516       3.6213720
       5723.0515       3.6353480
       5724.2514       3.6246820
       5725.4513       3.6056780
       5726.6513       3.6075040
       5727.8512       3.6203940
       5729.0511       3.5919020
       5730.2510       3.5962340
       5731.4509       3.5986700
       5732.6508       3.6104980
       5733.8507       3.6242500
       5735.0507       3.5934880
       5736.2506       3.5903500
       5737.4505       3.5915220
       5738.6504       3.6258440
       5739.8503       3.5939620
       5741.0502       3.5760700
       5742.2501       3.6043880
       5743.4500       3.6296160
       5744.6499       3.6308240
       5745.8498       3.6502940
       5747.0497       3.6481340
       5748.2496       3.6386340
       5749.4495       3.6428840
       5750.6495       3.6622980
       5751.8494       3.6432640
       5753.0493       3.6069580
       5754.2492       3.6180700
       5755.4492       3.6203260
       5756.6491       3.5927120
       5757.8490       3.6031660
       5759.0489       3.6242320
       5760.2488       3.6298520
       5761.4487       3.6430860
       5762.6486       3.6735340
       5763.8485       3.6826540
       5765.0484       3.6645320
       5766.2484       3.7275240
       5767.4483       3.6827640
       5768.6482       3.6860940
       5769.8481       3.7301180
       5771.0480       3.7639020
       5772.2479       3.7555480
       5773.4478       3.7126120
       5774.6477       3.7465620
       5775.8476       3.7789800
       5777.0475       3.7547540
       5778.2474       3.7496260
       5779.4473       3.7323040
       5780.6473       3.7750620
       5781.8472       3.7745620
       5783.0472       3.7999920
       5784.2471       3.8357520
       5785.4470       3.8157800
       5786.6469       3.8457160
       5787.8468       3.8465660
       5789.0467       3.9112140
       5790.2466       3.8404220
       5791.4465       3.8648400
       5792.6464       3.8991900
       5793.8463       3.9374260
       5795.0462       3.9327000
       5796.2462       3.8810060
       5797.4461       3.9015580
       5798.6460       3.9273920
       5799.8459       3.9295760
       5801.0458       3.8914220
       5802.2457       3.8806080
       5803.4456       3.9099260
       5804.6455       3.9134280
       5805.8454       3.9340060
       5807.0453       3.9649340
       5808.2452       3.9524600
       5809.4451       3.9590960
       5810.6450       4.0000840
       5811.8451       4.0116300
       5813.0450       4.0001020
       5814.2449       3.9986020
       5815.4448       4.0131680
       5816.6447       4.0147700
       5817.8446       3.9901580
       5819.0445       4.0045380
       5820.2444       4.0255700
       5821.4443       4.0021780
       5822.6442       3.9896060
       5823.8441       3.9954040
       5825.0440       3.9941300
       5826.2439       3.9621480
       5827.4439       3.9985140
       5828.6438       3.9933500
       5829.8437       4.0497560
       5831.0436       3.9430940
       5832.2435       4.0008400
       5833.4434       3.9762540
       5834.6433       3.9855840
       5835.8432       3.9590720
       5837.0431       3.9553280
       5838.2430       3.9532580
       5839.4429       3.8941220
       5840.6429       3.9235740
       5841.8428       3.8475240
       5843.0428       3.8333760
       5844.2427       3.9105540
       5845.4426       3.8535700
       5846.6425       3.8818060
       5847.8424       3.8981160
       5849.0423       3.8651600
       5850.2422       3.8418280
       5851.4421       3.8699160
       5852.6420       3.8244960
       5853.8419       3.8534300
       5855.0418       3.8576240
       5856.2417       3.8636000
       5857.4416       3.8253380
       5858.6416       3.8172820
       5859.8415       3.8364220
       5861.0414       3.8712120
       5862.2413       3.8781720
       5863.4412       3.9031300
       5864.6411       3.9198080
       5865.8410       3.9336540
       5867.0409       3.9489780
       5868.2408       3.9208820
       5869.4408       3.9089420
       5870.6407       3.9392460
       5871.8406       3.9325940
       5873.0405       3.9076340
       5874.2405       3.9120980
       5875.4404       3.9193920
       5876.6403       3.9520140
       5877.8402       3.9552560
       5879.0401       3.9019680
       5880.2400       3.9323240
       5881.4399       3.9158980
       5882.6398       3.9220400
       5883.8397       3.9648800
       5885.0396       3.9761340
       5886.2395       3.9657480
       5887.4394       4.0710280
       5888.6393       4.1382220
       5889.8393       4.1700840
       5891.0392       4.1923340
       5892.2391       4.1815420
       5893.4390       4.0604200
       5894.6389       4.1449540
       5895.8388       4.1291680
       5897.0387       4.1259760
       5898.2387       4.0741340
       5899.4386       4.0801460
       5900.6385       4.0062940
       5901.8384       4.0349540
       5903.0383       4.0468100
       5904.2382       4.0394600
       5905.4382       4.0200340
       5906.6381       4.0730400
       5907.8380       4.0611180
       5909.0379       4.0590500
       5910.2378       4.0161620
       5911.4377       4.0368140
       5912.6376       4.0015820
       5913.8375       3.9817740
       5915.0374       3.9483760
       5916.2373       3.9183460
       5917.4372       3.9211000
       5918.6371       3.9037800
       5919.8370       3.8704660
       5921.0370       3.8857460
       5922.2369       3.8879880
       5923.4368       3.8591820
       5924.6367       3.9172680
       5925.8366       3.9759340
       5927.0366       3.9533280
       5928.2365       3.9672380
       5929.4364       3.9908920
       5930.6363       3.9726480
       5931.8362       3.9442940
       5933.0361       3.9115640
       5934.2360       3.9270400
       5935.4360       3.8687860
       5936.6359       3.8472200
       5937.8358       3.8909380
       5939.0357       3.8366260
       5940.2356       3.7907720
       5941.4355       3.8063360
       5942.6354       3.8289860
       5943.8353       3.7963040
       5945.0352       3.8097880
       5946.2351       3.7655280
       5947.4350       3.7587040
       5948.6349       3.7532380
       5949.8348       3.7009160
       5951.0348       3.7683620
       5952.2347       3.7386660
       5953.4346       3.7231780
       5954.6345       3.7254060
       5955.8345       3.6837880
       5957.0344       3.6428180
       5958.2343       3.6469600
       5959.4342       3.6201280
       5960.6341       3.5914160
       5961.8340       3.5754020
       5963.0339       3.5458560
       5964.2338       3.5268140
       5965.4337       3.5100820
       5966.6337       3.5318660
       5967.8336       3.4996300
       5969.0335       3.4697180
       5970.2334       3.4792460
       5971.4333       3.4743420
       5972.6332       3.4542420
       5973.8331       3.4399480
       5975.0330       3.4273100
       5976.2329       3.4054360
       5977.4328       3.4243560
       5978.6327       3.4461640
       5979.8326       3.4170860
       5981.0325       3.3839100
       5982.2325       3.3907080
       5983.4324       3.3938960
       5984.6324       3.3904680
       5985.8323       3.3693380
       5987.0322       3.3522020
       5988.2321       3.3426220
       5989.4320       3.3279500
       5990.6319       3.3027800
       5991.8318       3.2961680
       5993.0317       3.3687460
       5994.2316       3.3274920
       5995.4315       3.3205580
       5996.6314       3.3605860
       5997.8314       3.3289320
       5999.0313       3.3771260
       6000.2312       3.3972640
       6001.4311       3.3853520
       6002.6310       3.3299780
       6003.8309       3.3569920
       6005.0308       3.3853400
       6006.2307       3.3392660
       6007.4306       3.3689820
       6008.6305       3.3737220
       6009.8304       3.3650740
       6011.0303       3.3669760
       6012.2302       3.3863960
       6013.4303       3.3843900
       6014.6302       3.3852240
       6015.8301       3.4020660
       6017.0300       3.4051660
       6018.2299       3.3974240
       6019.4298       3.4087820
       6020.6297       3.4043100
       6021.8296       3.3911440
       6023.0295       3.4070920
       6024.2294       3.4219960
       6025.4293       3.4302020
       6026.6292       3.4457260
       6027.8291       3.4381660
       6029.0291       3.4031060
       6030.2290       3.3886160
       6031.4289       3.4166360
       6032.6288       3.4613100
       6033.8287       3.4367000
       6035.0286       3.3961040
       6036.2285       3.3800480
       6037.4284       3.3834000
       6038.6283       3.3496000
       6039.8282       3.3621100
       6041.0281       3.4084640
       6042.2281       3.3422440
       6043.4280       3.2904160
       6044.6280       3.3021140
       6045.8279       3.2788560
       6047.0278       3.2780240
       6048.2277       3.3102300
       6049.4276       3.2818040
       6050.6275       3.3275880
       6051.8274       3.2686800
       6053.0273       3.2667380
       6054.2272       3.2337980
       6055.4271       3.2243520
       6056.6270       3.2632120
       6057.8269       3.2246060
       6059.0268       3.2031940
       6060.2268       3.1993140
       6061.4267       3.2025440
       6062.6266       3.1591240
       6063.8265       3.1616720
       6065.0264       3.1600600
       6066.2263       3.1695860
       6067.4262       3.1653220
       6068.6261       3.1596720
       6069.8260       3.1715540
       6071.0260       3.1615420
       6072.2259       3.1546320
       6073.4258       3.1492900
       6074.6257       3.1499000
       6075.8257       3.1564440
       6077.0256       3.1426200
       6078.2255       3.1912120
       6079.4254       3.1886040
       6080.6253       3.1454480
       6081.8252       3.1708520
       6083.0251       3.1502740
       6084.2250       3.1354120
       6085.4249       3.1573940
       6086.6248       3.1539640
       6087.8247       3.1507800
       6089.0246       3.1871640
       6090.2246       3.1830320
       6091.4245       3.2014980
       6092.6244       3.2208200
       6093.8243       3.1954160
       6095.0242       3.2108820
       6096.2241       3.2199300
       6097.4240       3.1966460
       6098.6239       3.2713460
       6099.8239       3.2603920
       6101.0238       3.3318800
       6102.2237       3.3449440
       6103.4236       3.3169760
       6104.6235       3.3390600
       6105.8235       3.3707960
       6107.0234       3.3691420
       6108.2233       3.3834220
       6109.4232       3.4279960
       6110.6231       3.4710220
       6111.8230       3.4712060
       6113.0229       3.4920400
       6114.2228       3.5301640
       6115.4227       3.5551500
       6116.6226       3.5696900
       6117.8225       3.5758440
       6119.0224       3.6048100
       6120.2223       3.6186280
       6121.4223       3.6075280
       6122.6222       3.6403480
       6123.8221       3.6783820
       6125.0220       3.6909100
       6126.2219       3.6708960
       6127.4218       3.6707340
       6128.6218       3.7280160
       6129.8217       3.7796300
       6131.0216       3.8131160
       6132.2215       3.7989420
       6133.4214       3.7844720
       6134.6213       3.7519840
       6135.8212       3.8434440
       6137.0212       3.9163120
       6138.2211       3.8166580
       6139.4210       3.9020260
       6140.6209       3.8439460
       6141.8208       3.8596320
       6143.0207       3.8585400
       6144.2206       3.8775980
       6145.4205       3.8872660
       6146.6204       3.8614120
       6147.8203       3.8673440
       6149.0202       3.8527740
       6150.2201       3.8540160
       6151.4200       3.8350880
       6152.6200       3.8643760
       6153.8199       3.8250320
       6155.0198       3.8035940
       6156.2197       3.7892400
       6157.4197       3.7987220
       6158.6196       3.7737500
       6159.8195       3.7315500
       6161.0194       3.6717660
       6162.2193       3.6723120
       6163.4192       3.6525700
       6164.6191       3.5764060
       6165.8190       3.5654820
       6167.0189       3.5763920
       6168.2189       3.5541740
       6169.4188       3.5322560
       6170.6187       3.5123820
       6171.8186       3.4724720
       6173.0185       3.4206240
       6174.2184       3.4202240
       6175.4183       3.3536820
       6176.6182       3.3335920
       6177.8181       3.3181180
       6179.0180       3.2847800
       6180.2179       3.2877740
       6181.4178       3.2731140
       6182.6177       3.2426120
       6183.8177       3.2310460
       6185.0177       3.2116920
       6186.2176       3.1730100
       6187.4175       3.1256300
       6188.6174       3.1364740
       6189.8173       3.0717320
       6191.0172       3.0980320
       6192.2171       3.0613880
       6193.4170       3.0801740
       6194.6169       3.0707920
       6195.8168       3.0517660
       6197.0167       3.0140220
       6198.2166       2.9911240
       6199.4166       3.0214460
       6200.6165       3.0083860
       6201.8164       2.9732940
       6203.0163       2.9503320
       6204.2162       2.9413680
       6205.4161       2.9482060
       6206.6160       2.9316120
       6207.8159       2.9167820
       6209.0158       2.9330580
       6210.2157       2.9081920
       6211.4156       2.8762820
       6212.6155       2.8691960
       6213.8155       2.8581960
       6215.0155       2.8842880
       6216.2154       2.8850140
       6217.4153       2.8706620
       6218.6152       2.8240680
       6219.8151       2.8203800
       6221.0150       2.8527200
       6222.2149       2.8430820
       6223.4148       2.8217340
       6224.6147       2.8155120
       6225.8146       2.8318420
       6227.0145       2.7702760
       6228.2144       2.7412560
       6229.4144       2.8070860
       6230.6143       2.8004980
       6231.8142       2.7932460
       6233.0141       2.7731940
       6234.2140       2.8491920
       6235.4139       2.8729220
       6236.6138       2.8487020
       6237.8137       2.8199760
       6239.0136       2.8326560
       6240.2135       2.7845800
       6241.4134       2.7751440
       6242.6134       2.7749500
       6243.8133       2.7803900
       6245.0133       2.7518300
       6246.2132       2.7477920
       6247.4131       2.7301340
       6248.6130       2.7395260
       6249.8129       2.7364520
       6251.0128       2.7266120
       6252.2127       2.7222220
       6253.4126       2.7377780
       6254.6125       2.7701680
       6255.8124       2.7889960
       6257.0123       2.8081360
       6258.2122       2.8059520
       6259.4121       2.7760020
       6260.6121       2.7570420
       6261.8120       2.7288660
       6263.0119       2.7219780
       6264.2118       2.7231600
       6265.4117       2.7079400
       6266.6116       2.7318660
       6267.8115       2.7346500
       6269.0114       2.7284880
       6270.2113       2.7636860
       6271.4113       2.7003580
       6272.6112       2.6797180
       6273.8111       2.7108140
       6275.0110       2.6079300
       6276.2110       2.6093880
       6277.4109       2.5665740
       6278.6108       2.5442180
       6279.8107       2.5393920
       6281.0106       2.5983120
       6282.2105       2.6344500
       6283.4104       2.6559060
       6284.6103       2.6783800
       6285.8102       2.7824560
       6287.0101       2.7588600
       6288.2100       2.7264680
       6289.4099       2.7301680
       6290.6098       2.6788720
       6291.8098       2.6807700
       6293.0097       2.7002600
       6294.2096       2.7339840
       6295.4095       2.7554540
       6296.6094       2.7717900
       6297.8093       2.8385320
       6299.0092       2.9124260
       6300.2092       2.9364540
       6301.4091       2.9074020
       6302.6090       2.8547480
       6303.8089       2.8365400
       6305.0088       2.8733280
       6306.2087       2.8991140
       6307.4087       2.9084840
       6308.6086       2.9122640
       6309.8085       2.8960060
       6311.0084       2.8580180
       6312.2083       2.8558560
       6313.4082       2.8479880
       6314.6081       2.8783000
       6315.8080       2.9283600
       6317.0079       2.9467640
       6318.2078       2.8699140
       6319.4077       2.9428840
       6320.6076       2.9929700
       6321.8075       3.0159680
       6323.0075       3.0128880
       6324.2074       2.9612600
       6325.4073       2.9999660
       6326.6072       2.9950000
       6327.8071       3.0687380
       6329.0071       3.1260240
       6330.2070       3.1463760
       6331.4069       3.1311020
       6332.6068       3.1452700
       6333.8067       3.1263260
       6335.0066       3.1416800
       6336.2065       3.1398460
       6337.4064       3.1103160
       6338.6064       3.1348640
       6339.8063       3.1661200
       6341.0062       3.1575380
       6342.2061       3.1712160
       6343.4060       3.1787220
       6344.6059       3.1790260
       6345.8058       3.2020640
       6347.0057       3.1972840
       6348.2056       3.2383620
       6349.4055       3.2707780
       6350.6054       3.2343780
       6351.8053       3.2195320
       6353.0052       3.2737480
       6354.2052       3.3084900
       6355.4051       3.3486740
       6356.6050       3.3671840
       6357.8050       3.4029640
       6359.0049       3.3614200
       6360.2048       3.4044660
       6361.4047       3.3920140
       6362.6046       3.4134680
       6363.8045       3.3721420
       6365.0044       3.4245420
       6366.2043       3.4474640
       6367.4042       3.3995220
       6368.6041       3.4056860
       6369.8041       3.4705820
       6371.0040       3.4714580
       6372.2039       3.5045360
       6373.4038       3.4790300
       6374.6037       3.4981280
       6375.8036       3.4894100
       6377.0035       3.5334200
       6378.2034       3.5327060
       6379.4033       3.5711640
       6380.6032       3.5807180
       6381.8031       3.5665520
       6383.0030       3.5481880
       6384.2030       3.5587320
       6385.4029       3.5773840
       6386.6029       3.5875100
       6387.8028       3.6030220
       6389.0027       3.5795360
       6390.2026       3.5793660
       6391.4025       3.5790020
       6392.6024       3.5995620
       6393.8023       3.6372900
       6395.0022       3.6154180
       6396.2021       3.5842100
       6397.4020       3.6371140
       6398.6019       3.6439040
       6399.8019       3.6315100
       6401.0018       3.5961200
       6402.2017       3.6461440
       6403.4016       3.6550940
       6404.6015       3.6348740
       6405.8014       3.5934320
       6407.0013       3.6621020
       6408.2012       3.6441560
       6409.4011       3.6596220
       6410.6010       3.6411600
       6411.8009       3.6749660
       6413.0008       3.6763080
       6414.2007       3.6555280
       6415.4008       3.6542520
       6416.6007       3.6610760
       6417.8006       3.6849300
       6419.0005       3.6725640
       6420.2004       3.7021340
       6421.4003       3.7203600
       6422.6002       3.7128800
       6423.8001       3.7087460
       6425.0000       3.6894360
       6426.1999       3.6671580
       6427.3998       3.6692880
       6428.5997       3.6478900
       6429.7996       3.6341060
       6430.9996       3.6582800
       6432.1995       3.6368660
       6433.3994       3.6182920
       6434.5993       3.6379100
       6435.7992       3.6263360
       6436.9991       3.6073520
       6438.1990       3.5912220
       6439.3989       3.6024940
       6440.5988       3.5773900
       6441.7987       3.5908480
       6442.9986       3.6130060
       6444.1986       3.6228780
       6445.3985       3.6082460
       6446.5985       3.5907020
       6447.7984       3.6250900
       6448.9983       3.5755560
       6450.1982       3.5851700
       6451.3981       3.5620100
       6452.5980       3.5952780
       6453.7979       3.6147100
       6454.9978       3.5579720
       6456.1977       3.6044120
       6457.3976       3.6039360
       6458.5975       3.6058200
       6459.7974       3.5822080
       6460.9973       3.5771140
       6462.1973       3.5613300
       6463.3972       3.5841060
       6464.5971       3.6101400
       6465.7970       3.6230380
       6466.9969       3.6101820
       6468.1968       3.5824300
       6469.3967       3.5773840
       6470.5966       3.5910960
       6471.7965       3.5998340
       6472.9965       3.5904300
       6474.1964       3.5787880
       6475.3963       3.5829900
       6476.5962       3.5651000
       6477.7962       3.5665900
       6478.9961       3.5841880
       6480.1960       3.5908700
       6481.3959       3.5836980
       6482.5958       3.5962280
       6483.7957       3.5786920
       6484.9956       3.5508100
       6486.1955       3.5742960
       6487.3954       3.5522160
       6488.5953       3.5837060
       6489.7952       3.5434740
       6490.9951       3.5857580
       6492.1950       3.5482860
       6493.3950       3.5399340
       6494.5949       3.5767300
       6495.7948       3.6239540
       6496.9947       3.6734580
       6498.1946       3.7041680
       6499.3945       3.6678440
       6500.5944       3.6495740
       6501.7944       3.6816860
       6502.9943       3.6837500
       6504.1942       3.6464100
       6505.3941       3.6587200
       6506.5940       3.6884160
       6507.7939       3.6970780
       6508.9939       3.6700360
       6510.1938       3.6592240
       6511.3937       3.6816340
       6512.5936       3.6759160
       6513.7935       3.6563340
       6514.9934       3.6681940
       6516.1933       3.6600600
       6517.3932       3.6274760
       6518.5931       3.6692700
       6519.7930       3.6994200
       6520.9929       3.7001380
       6522.1928       3.6835280
       6523.3928       3.6779060
       6524.5927       3.6551940
       6525.7926       3.7057040
       6526.9925       3.7118100
       6528.1924       3.7251560
       6529.3923       3.7354280
       6530.5923       3.7661500
       6531.7922       3.7800460
       6532.9921       3.7175780
       6534.1920       3.7504240
       6535.3919       3.7619140
       6536.5918       3.7449180
       6537.7917       3.6973680
       6538.9917       3.7128220
       6540.1916       3.7216680
       6541.3915       3.7062600
       6542.5914       3.7495620
       6543.7913       3.7075340
       6544.9912       3.7068220
       6546.1911       3.7124500
       6547.3910       3.7146320
       6548.5909       3.7078960
       6549.7908       3.6941380
       6550.9907       3.7116320
       6552.1906       3.7278640
       6553.3905       3.7431700
       6554.5905       3.7336960
       6555.7904       3.6919840
       6556.9903       3.6966880
       6558.1902       3.6894760
       6559.3902       3.6666880
       6560.5901       3.6888260
       6561.7900       3.6688980
       6562.9899       3.6495180
       6564.1898       3.6405300
       6565.3897       3.6515100
       6566.5896       3.6513600
       6567.7895       3.6524500
       6568.9894       3.6707600
       6570.1894       3.6406000
       6571.3893       3.6143660
       6572.5892       3.6792960
       6573.7891       3.6459900
       6574.9890       3.6705820
       6576.1889       3.6858540
       6577.3888       3.6883120
       6578.5887       3.6691700
       6579.7886       3.6258420
       6580.9885       3.6067860
       6582.1884       3.5749560
       6583.3883       3.6008560
       6584.5882       3.6313080
       6585.7882       3.6348760
       6586.9882       3.5869220
       6588.1881       3.6061220
       6589.3880       3.6252720
       6590.5879       3.6454420
       6591.7878       3.7032220
       6592.9877       3.7199800
       6594.1876       3.7115680
       6595.3875       3.6842480
       6596.5874       3.6195800
       6597.7873       3.5805900
       6598.9872       3.5565760
       6600.1871       3.5601680
       6601.3871       3.5655080
       6602.5870       3.5722700
       6603.7869       3.5565120
       6604.9868       3.5563500
       6606.1867       3.5486860
       6607.3866       3.5541820
       6608.5865       3.5169440
       6609.7864       3.5105420
       6610.9863       3.4805300
       6612.1862       3.5108580
       6613.3861       3.5080000
       6614.5860       3.4922860
       6615.7860       3.4918220
       6616.9860       3.4422480
       6618.1859       3.4661760
       6619.3858       3.4396960
       6620.5857       3.4024100
       6621.7856       3.3939880
       6622.9855       3.3609260
       6624.1854       3.3648420
       6625.3853       3.3990880
       6626.5852       3.3955100
       6627.7851       3.3838940
       6628.9850       3.3503440
       6630.1849       3.3319780
       6631.3848       3.3620200
       6632.5848       3.3456900
       6633.7847       3.3130080
       6634.9846       3.3254120
       6636.1845       3.3173280
       6637.3844       3.2932580
       6638.5843       3.2800680
       6639.7842       3.2718360
       6640.9841       3.2751200
       6642.1840       3.2614640
       6643.3839       3.2006140
       6644.5839       3.2222060
       6645.7838       3.1892420
       6646.9837       3.1792700
       6648.1837       3.2097120
       6649.3836       3.2058400
       6650.5835       3.2253480
       6651.7834       3.2131800
       6652.9833       3.1708640
       6654.1832       3.1941960
       6655.3831       3.1843420
       6656.5830       3.1520760
       6657.7829       3.1611420
       6658.9828       3.1835700
       6660.1827       3.1847480
       6661.3826       3.1851520
       6662.5825       3.2094360
       6663.7825       3.2031060
       6664.9824       3.2222100
       6666.1823       3.2348820
       6667.3822       3.2139400
       6668.5821       3.2162320
       6669.7820       3.2258680
       6670.9819       3.2111520
       6672.1818       3.2228460
       6673.3818       3.2272420
       6674.5817       3.1963760
       6675.7816       3.1942300
       6676.9815       3.2017420
       6678.1815       3.1893700
       6679.3814       3.2036820
       6680.5813       3.2104680
       6681.7812       3.2222100
       6682.9811       3.2660620
       6684.1810       3.2256440
       6685.3809       3.2269360
       6686.5808       3.2249920
       6687.7807       3.2505740
       6688.9806       3.2329500
       6690.1805       3.2396980
       6691.3804       3.2582780
       6692.5803       3.2871440
       6693.7803       3.2668020
       6694.9802       3.2697060
       6696.1801       3.2881440
       6697.3800       3.2801920
       6698.5799       3.3139780
       6699.7798       3.2888520
       6700.9797       3.2711300
       6702.1797       3.2595580
       6703.3796       3.3028560
       6704.5795       3.3123820
       6705.7794       3.3126020
       6706.9793       3.3127140
       6708.1792       3.3080960
       6709.3792       3.2835020
       6710.5791       3.3079100
       6711.7790       3.3075020
       6712.9789       3.2650100
       6714.1788       3.2528380
       6715.3787       3.2782900
       6716.5786       3.2829840
       6717.7785       3.2571220
       6718.9784       3.2616160
       6720.1783       3.2642060
       6721.3782       3.2479160
       6722.5781       3.2571220
       6723.7780       3.2830540
       6724.9780       3.2773080
       6726.1779       3.2569100
       6727.3778       3.2584680
       6728.5777       3.2468840
       6729.7776       3.2487340
       6730.9776       3.2357960
       6732.1775       3.2612260
       6733.3774       3.2408600
       6734.5773       3.2037040
       6735.7772       3.2464680
       6736.9771       3.2635960
       6738.1770       3.2599820
       6739.3769       3.2222760
       6740.5769       3.2344100
       6741.7768       3.2232660
       6742.9767       3.1820760
       6744.1766       3.2043960
       6745.3765       3.2251080
       6746.5764       3.2162000
       6747.7763       3.2043440
       6748.9762       3.1684500
       6750.1761       3.1757420
       6751.3760       3.1777200
       6752.5759       3.1786320
       6753.7758       3.1682200
       6754.9757       3.1513660
       6756.1757       3.1458060
       6757.3756       3.1608660
       6758.5755       3.1701960
       6759.7755       3.1290020
       6760.9754       3.1379480
       6762.1753       3.1272840
       6763.3752       3.1278260
       6764.5751       3.0908440
       6765.7750       3.0667240
       6766.9749       3.0638480
       6768.1748       3.0796280
       6769.3747       3.0537820
       6770.5746       3.0469640
       6771.7746       3.0766100
       6772.9745       3.0862420
       6774.1744       3.0401240
       6775.3743       3.0294980
       6776.5742       3.0387660
       6777.7741       2.9961280
       6778.9740       2.9694520
       6780.1739       2.9999320
       6781.3738       3.0100300
       6782.5737       3.0093100
       6783.7736       3.0015180
       6784.9735       2.9521960
       6786.1734       2.9472620
       6787.3734       2.9380700
       6788.5734       2.9299620
       6789.7733       2.9333720
       6790.9732       2.9142600
       6792.1731       2.8940780
       6793.3730       2.9045040
       6794.5729       2.8915500
       6795.7728       2.8744580
       6796.9727       2.8694420
       6798.1726       2.8217760
       6799.3725       2.8009900
       6800.5724       2.8011400
       6801.7723       2.7760760
       6802.9723       2.7912420
       6804.1722       2.7775820
       6805.3721       2.8022040
       6806.5720       2.7785700
       6807.7719       2.7837260
       6808.9718       2.7473340
       6810.1717       2.7707460
       6811.3716       2.7721120
       6812.5715       2.7898660
       6813.7714       2.7329640
       6814.9713       2.7554800
       6816.1712       2.7576940
       6817.3712       2.7188020
       6818.5712       2.7702620
       6819.7711       2.7091520
       6820.9710       2.7202600
       6822.1709       2.7050820
       6823.3708       2.7217460
       6824.5707       2.7252480
       6825.7706       2.7753020
       6826.9705       2.8095100
       6828.1704       2.8173140
       6829.3703       2.8259860
       6830.5702       2.8453080
       6831.7701       2.8014540
       6832.9701       2.7736340
       6834.1700       2.7960100
       6835.3699       2.7683400
       6836.5698       2.7352760
       6837.7697       2.7169780
       6838.9696       2.6632980
       6840.1695       2.6643800
       6841.3694       2.6933540
       6842.5693       2.6959280
       6843.7692       2.6972280
       6844.9691       2.6870520
       6846.1691       2.6736020
       6847.3690       2.6563040
       6848.5690       2.6548280
       6849.7689       2.6974700
       6850.9688       2.6698920
       6852.1687       2.6341180
       6853.3686       2.6475980
       6854.5685       2.6785280
       6855.7684       2.6572720
       6856.9683       2.7079260
       6858.1682       2.6382740
       6859.3681       2.6736980
       6860.5680       2.7079280
       6861.7679       2.7615700
       6862.9678       2.7952480
       6864.1678       2.7810940
       6865.3677       2.7109980
       6866.5676       2.6135960
       6867.7675       2.5240640
       6868.9674       2.5472320
       6870.1673       2.5418600
       6871.3672       2.5197600
       6872.5671       2.5216800
       6873.7670       2.5055360
       6874.9670       2.5316020
       6876.1669       2.5479720
       6877.3668       2.5654980
       6878.5667       2.6342740
       6879.7667       2.6455740
       6880.9666       2.6575660
       6882.1665       2.6505480
       6883.3664       2.6413820
       6884.5663       2.6036700
       6885.7662       2.5733760
       6886.9661       2.5686860
       6888.1660       2.5595380
       6889.3659       2.5895860
       6890.5658       2.5850040
       6891.7657       2.5350520
       6892.9656       2.5750760
       6894.1655       2.5246620
       6895.3655       2.5846940
       6896.5654       2.5513100
       6897.7653       2.5623300
       6898.9652       2.5609040
       6900.1651       2.6117800
       6901.3650       2.5953800
       6902.5649       2.6258440
       6903.7649       2.6553320
       6904.9648       2.5911620
       6906.1647       2.5814920
       6907.3646       2.5695700
       6908.5645       2.5993520
       6909.7644       2.6534020
       6910.9644       2.6899900
       6912.1643       2.7378860
       6913.3642       2.7374480
       6914.5641       2.6990980
       6915.7640       2.6701740
       6916.9639       2.6425360
       6918.1638       2.6713060
       6919.3637       2.7098180
       6920.5636       2.7380240
       6921.7635       2.7741320
       6922.9634       2.8032880
       6924.1633       2.8295480
       6925.3632       2.7658140
       6926.5632       2.6806960
       6927.7631       2.7107660
       6928.9630       2.7227700
       6930.1629       2.7844500
       6931.3628       2.8384480
       6932.5628       2.8026400
       6933.7627       2.7660680
       6934.9626       2.7773100
       6936.1625       2.7364700
       6937.3624       2.7082940
       6938.5623       2.7322820
       6939.7622       2.7736460
       6940.9621       2.7989080
       6942.1621       2.7776960
       6943.3620       2.7623320
       6944.5619       2.7771160
       6945.7618       2.7863160
       6946.9617       2.8289760
       6948.1616       2.8505580
       6949.3615       2.8408560
       6950.5614       2.7876800
       6951.7613       2.7401980
       6952.9612       2.7075820
       6954.1611       2.6866920
       6955.3610       2.6712740
       6956.5609       2.6642560
       6957.7609       2.6999540
       6958.9608       2.7323680
       6960.1607       2.7221280
       6961.3607       2.7276700
       6962.5606       2.7317380
       6963.7605       2.7251240
       6964.9604       2.7724500
       6966.1603       2.7752460
       6967.3602       2.7523880
       6968.5601       2.7896640
       6969.7600       2.7966520
       6970.9599       2.7767060
       6972.1599       2.7397840
       6973.3598       2.7517280
       6974.5597       2.7655740
       6975.7596       2.7740480
       6976.9595       2.8263540
       6978.1594       2.7897340
       6979.3593       2.8244900
       6980.5592       2.8141480
       6981.7591       2.7522140
       6982.9590       2.7180780
       6984.1589       2.7508960
       6985.3588       2.7222200
       6986.5587       2.6587120
       6987.7587       2.6587940
       6988.9587       2.6688660
       6990.1586       2.6699900
       6991.3585       2.6603360
       6992.5584       2.6701600
       6993.7583       2.6481000
       6994.9582       2.6475100
       6996.1581       2.6743940
       6997.3580       2.6457260
       6998.5579       2.6449320
       6999.7578       2.6471560
       7000.9577       2.6337660
       7002.1576       2.6551600
       7003.3576       2.6444660
       7004.5575       2.6232080
       7005.7574       2.5883560
       7006.9573       2.6004380
       7008.1572       2.6083000
       7009.3571       2.6026340
       7010.5570       2.6268020
       7011.7569       2.5939820
       7012.9568       2.5851100
       7014.1567       2.5607920
       7015.3566       2.5397620
       7016.5565       2.5483240
       7017.7564       2.5826980
       7018.9565       2.5750440
       7020.1564       2.5324760
       7021.3563       2.5415880
       7022.5562       2.5523740
       7023.7561       2.5337060
       7024.9560       2.5436640
       7026.1559       2.5105920
       7027.3558       2.5281960
       7028.5557       2.5369440
       7029.7556       2.5211600
       7030.9555       2.5182620
       7032.1554       2.5379940
       7033.3553       2.5425960
       7034.5553       2.5149840
       7035.7552       2.4921680
       7036.9551       2.5088220
       7038.1550       2.5213380
       7039.3549       2.5025600
       7040.5548       2.5086940
       7041.7547       2.4906280
       7042.9546       2.5032780
       7044.1545       2.5231420
       7045.3544       2.5372160
       7046.5544       2.5631480
       7047.7543       2.5465100
       7048.9542       2.5409720
       7050.1542       2.5877460
       7051.3541       2.5183240
       7052.5540       2.5101740
       7053.7539       2.5251380
       7054.9538       2.5124600
       7056.1537       2.5164260
       7057.3536       2.5249960
       7058.5535       2.5083180
       7059.7534       2.5055760
       7060.9533       2.5235600
       7062.1532       2.5306040
       7063.3531       2.5586420
       7064.5530       2.5442020
       7065.7530       2.5242780
       7066.9529       2.5442580
       7068.1528       2.5465840
       7069.3527       2.5797080
       7070.5526       2.5732980
       7071.7525       2.5265720
       7072.9524       2.5248340
       7074.1523       2.5284400
       7075.3523       2.5320620
       7076.5522       2.5434700
       7077.7521       2.5283620
       7078.9520       2.5169300
       7080.1519       2.5161880
       7081.3519       2.5706200
       7082.5518       2.5753400
       7083.7517       2.5272300
       7084.9516       2.5391620
       7086.1515       2.5501000
       7087.3514       2.5470320
       7088.5513       2.5511460
       7089.7512       2.5509040
       7090.9511       2.5411120
       7092.1510       2.5024500
       7093.3509       2.4991400
       7094.5508       2.4713200
       7095.7507       2.5085720
       7096.9507       2.5062100
       7098.1506       2.4729800
       7099.3505       2.4940460
       7100.5504       2.4694300
       7101.7503       2.4687100
       7102.9502       2.4829080
       7104.1502       2.4518720
       7105.3501       2.4053700
       7106.5500       2.4596200
       7107.7499       2.4801600
       7108.9498       2.4735860
       7110.1497       2.4504860
       7111.3496       2.4494860
       7112.5496       2.4626880
       7113.7495       2.4373980
       7114.9494       2.4111480
       7116.1493       2.4199260
       7117.3492       2.4152440
       7118.5491       2.3975900
       7119.7490       2.3968240
       7120.9489       2.4153400
       7122.1488       2.4108100
       7123.3487       2.3878800
       7124.5486       2.3964040
       7125.7485       2.3917460
       7126.9485       2.3690960
       7128.1484       2.4009040
       7129.3483       2.3879780
       7130.5482       2.3221560
       7131.7481       2.3704400
       7132.9481       2.3486840
       7134.1480       2.3487260
       7135.3479       2.3725860
       7136.5478       2.3514100
       7137.7477       2.3560280
       7138.9476       2.3781440
       7140.1475       2.3758760
       7141.3474       2.3769680
       7142.5474       2.3857500
       7143.7473       2.3730120
       7144.9472       2.3648200
       7146.1471       2.3684000
       7147.3470       2.3903840
       7148.5469       2.4319620
       7149.7468       2.4463280
       7150.9467       2.4616560
       7152.1466       2.4571780
       7153.3465       2.4222240
       7154.5464       2.3888740
       7155.7463       2.3759040
       7156.9462       2.3885100
       7158.1462       2.4227300
       7159.3461       2.4577680
       7160.5460       2.4644900
       7161.7460       2.4458420
       7162.9459       2.4494920
       7164.1458       2.4219400
       7165.3457       2.4473320
       7166.5456       2.4261040
       7167.7455       2.4356200
       7168.9454       2.4240000
       7170.1453       2.4532460
       7171.3452       2.4312080
       7172.5451       2.4530240
       7173.7451       2.4473460
       7174.9450       2.4257140
       7176.1449       2.4062360
       7177.3448       2.4255560
       7178.5447       2.4190640
       7179.7446       2.4314720
       7180.9445       2.4501660
       7182.1444       2.4735820
       7183.3443       2.3990960
       7184.5442       2.3953760
       7185.7441       2.3691160
       7186.9440       2.3963560
       7188.1439       2.4282000
       7189.3439       2.4326540
       7190.5439       2.4573280
       7191.7438       2.4180700
       7192.9437       2.4235400
       7194.1436       2.4679280
       7195.3435       2.4908800
       7196.5434       2.5086900
       7197.7433       2.4946120
       7198.9432       2.4662820
       7200.1431       2.4648440
       7201.3430       2.4703260
       7202.5429       2.4748720
       7203.7428       2.4623640
       7204.9428       2.4648680
       7206.1427       2.4882160
       7207.3426       2.5279780
       7208.5425       2.5616540
       7209.7424       2.6063520
       7210.9423       2.6251620
       7212.1422       2.6217800
       7213.3421       2.5648080
       7214.5420       2.5964480
       7215.7419       2.6316840
       7216.9418       2.6197020
       7218.1417       2.5843420
       7219.3417       2.6290540
       7220.5417       2.6356260
       7221.7416       2.6185420
       7222.9415       2.6462620
       7224.1414       2.6265840
       7225.3413       2.6197640
       7226.5412       2.5883320
       7227.7411       2.5862100
       7228.9410       2.6045020
       7230.1409       2.5839160
       7231.3408       2.5540280
       7232.5407       2.4778500
       7233.7406       2.4286260
       7234.9405       2.4530960
       7236.1405       2.5392400
       7237.3404       2.6467820
       7238.5403       2.7309920
       7239.7402       2.7650760
       7240.9401       2.7606040
       7242.1400       2.7565140
       7243.3399       2.7706820
       7244.5398       2.7379260
       7245.7397       2.7166620
       7246.9396       2.6885440
       7248.1396       2.5983860
       7249.3395       2.4971580
       7250.5394       2.4528720
       7251.7394       2.4356160
       7252.9393       2.4719560
       7254.1392       2.5572580
       7255.3391       2.4578820
       7256.5390       2.4971040
       7257.7389       2.4364120
       7258.9388       2.4885560
       7260.1387       2.4465120
       7261.3386       2.4335560
       7262.5385       2.3976860
       7263.7384       2.3982820
       7264.9383       2.3988980
       7266.1382       2.4078880
       7267.3382       2.4473460
       7268.5381       2.4504820
       7269.7380       2.4752400
       7270.9379       2.4716640
       7272.1378       2.4948640
       7273.3377       2.5755300
       7274.5376       2.6554740
       7275.7375       2.7148580
       7276.9375       2.6998800
       7278.1374       2.6276720
       7279.3373       2.5168980
       7280.5372       2.4601280
       7281.7372       2.5197320
       7282.9371       2.5830980
       7284.1370       2.6029280
       7285.3369       2.5665580
       7286.5368       2.4843460
       7287.7367       2.4060960
       7288.9366       2.3620040
       7290.1365       2.3761440
       7291.3364       2.3436620
       7292.5363       2.4141120
       7293.7362       2.4578800
       7294.9361       2.4751920
       7296.1360       2.4651040
       7297.3360       2.4868820
       7298.5359       2.4510360
       7299.7358       2.4286280
       7300.9357       2.4308940
       7302.1356       2.4732180
       7303.3355       2.4587920
       7304.5354       2.4720460
       7305.7354       2.5140420
       7306.9353       2.4749980
       7308.1352       2.4768000
       7309.3351       2.4204800
       7310.5350       2.4186820
       7311.7349       2.4423860
       7312.9349       2.5177780
       7314.1348       2.6168520
       7315.3347       2.6810460
       7316.5346       2.7152820
       7317.7345       2.6550820
       7318.9344       2.5560440
       7320.1343       2.4942860
       7321.3342       2.4519780
       7322.5341       2.4532060
       7323.7340       2.4987320
       7324.9339       2.5204380
       7326.1338       2.5306240
       7327.3337       2.5796280
       7328.5337       2.6270320
       7329.7336       2.6313880
       7330.9335       2.5944780
       7332.1334       2.5583240
       7333.3333       2.5105640
       7334.5333       2.4715100
       7335.7332       2.5025620
       7336.9331       2.5566980
       7338.1330       2.6574680
       7339.3329       2.8038740
       7340.5328       2.8791080
       7341.7327       2.8422240
       7342.9326       2.7209960
       7344.1326       2.5821500
       7345.3325       2.5271980
       7346.5324       2.5591520
       7347.7323       2.5172980
       7348.9322       2.5236680
       7350.1321       2.5104380
       7351.3320       2.5248520
       7352.5319       2.4992500
       7353.7318       2.5142680
       7354.9317       2.5163540
       7356.1316       2.6028760
       7357.3315       2.6579580
       7358.5314       2.6560040
       7359.7314       2.6355420
       7360.9313       2.5863400
       7362.1312       2.5420580
       7363.3312       2.5323300
       7364.5311       2.5411500
       7365.7310       2.5948920
       7366.9309       2.6925220
       7368.1308       2.7640280
       7369.3307       2.7977460
       7370.5306       2.7773280
       7371.7305       2.7075720
       7372.9304       2.6065160
       7374.1303       2.5649360
       7375.3303       2.5712500
       7376.5302       2.5812480
       7377.7301       2.5503500
       7378.9300       2.5736280
       7380.1299       2.5770880
       7381.3298       2.5565900
       7382.5297       2.5663840
       7383.7296       2.5653300
       7384.9295       2.5841720
       7386.1294       2.5903480
       7387.3293       2.5881620
       7388.5292       2.6220800
       7389.7291       2.6397320
       7390.9291       2.6409360
       7392.1291       2.6834480
       7393.3290       2.6502800
       7394.5289       2.6296820
       7395.7288       2.5968860
       7396.9287       2.6099080
       7398.1286       2.6499980
       7399.3285       2.7314400
       7400.5284       2.7554940
       7401.7283       2.7845100
       7402.9282       2.8008120
       7404.1281       2.7416040
       7405.3280       2.6847080
       7406.5280       2.6378960
       7407.7279       2.6132500
       7408.9278       2.6339100
       7410.1277       2.6535020
       7411.3276       2.6337400
       7412.5275       2.6085900
       7413.7274       2.6635600
       7414.9273       2.6968760
       7416.1272       2.6743400
       7417.3271       2.6621560
       7418.5270       2.7115600
       7419.7269       2.6724820
       7420.9270       2.6783540
       7422.1269       2.6395000
       7423.3268       2.6613400
       7424.5267       2.6473360
       7425.7266       2.6513300
       7426.9265       2.6953200
       7428.1264       2.7070100
       7429.3263       2.7151720
       7430.5262       2.6685740
       7431.7261       2.6485300
       7432.9260       2.6790000
       7434.1259       2.6597300
       7435.3258       2.6851740
       7436.5258       2.7203060
       7437.7257       2.7160380
       7438.9256       2.7368940
       7440.1255       2.7140280
       7441.3254       2.6459420
       7442.5253       2.6130260
       7443.7252       2.6111920
       7444.9251       2.5953760
       7446.1250       2.5752960
       7447.3249       2.5744240
       7448.5249       2.5824420
       7449.7248       2.5722320
       7450.9247       2.5563640
       7452.1247       2.5290160
       7453.3246       2.4891640
       7454.5245       2.4824660
       7455.7244       2.4508580
       7456.9243       2.4717020
       7458.1242       2.4669600
       7459.3241       2.4721820
       7460.5240       2.4755540
       7461.7239       2.4985980
       7462.9238       2.4208760
       7464.1237       2.4329500
       7465.3236       2.4154240
       7466.5235       2.4152920
       7467.7235       2.4121840
       7468.9234       2.3307020
       7470.1233       2.3184360
       7471.3232       2.3152120
       7472.5231       2.3019860
       7473.7230       2.2780680
       7474.9229       2.2505420
       7476.1228       2.2009400
       7477.3228       2.1967200
       7478.5227       2.1623820
       7479.7226       2.1366940
       7480.9225       2.1428420
       7482.1224       2.1352620
       7483.3224       2.0956740
       7484.5223       2.0383860
       7485.7222       2.0075780
       7486.9221       2.0153560
       7488.1220       1.9815692
       7489.3219       1.9506146
       7490.5218       1.9538540
       7491.7217       1.9437230
       7492.9216       1.9057634
       7494.1215       1.8841126
       7495.3214       1.8713388
       7496.5213       1.8537976
       7497.7212       1.8570288
       7498.9212       1.8217260
       7500.1211       1.8104930
       7501.3210       1.8181152
       7502.5209       1.7852850
       7503.7208       1.7584266
       7504.9207       1.7611836
       7506.1207       1.7472232
       7507.3206       1.7456656
       7508.5205       1.7311692
       7509.7204       1.7046454
       7510.9203       1.7312796
       7512.1202       1.7136334
       7513.3201       1.6530012
       7514.5201       1.6837960
       7515.7200       1.6675530
       7516.9199       1.7266742
       7518.1198       1.6782910
       7519.3197       1.6222616
       7520.5196       1.6732478
       7521.7195       1.7572874
       7522.9194       1.7897942
       7524.1193       1.7846698
       7525.3192       1.7331450
       7526.5191       1.6813818
       7527.7190       1.6358910
       7528.9189       1.5978720
       7530.1189       1.5587970
       7531.3188       1.5544348
       7532.5187       1.5315200
       7533.7186       1.5154724
       7534.9186       1.4948666
       7536.1185       1.4719658
       7537.3184       1.4706282
       7538.5183       1.4546300
       7539.7182       1.4384786
       7540.9181       1.4312024
       7542.1180       1.4237490
       7543.3179       1.4303140
       7544.5178       1.4360094
       7545.7178       1.4322994
       7546.9177       1.4222676
       7548.1176       1.4052744
       7549.3175       1.4080744
       7550.5174       1.4343218
       7551.7173       1.4506752
       7552.9172       1.4522710
       7554.1171       1.4533086
       7555.3170       1.4673382
       7556.5169       1.4754416
       7557.7168       1.4881972
       7558.9167       1.4718542
       7560.1166       1.4722252
       7561.3166       1.4550510
       7562.5165       1.4746838
       7563.7165       1.4767952
       7564.9164       1.4991176
       7566.1163       1.4530892
       7567.3162       1.4696054
       7568.5161       1.5055342
       7569.7160       1.5369576
       7570.9159       1.5765162
       7572.1158       1.5677064
       7573.3157       1.5543906
       7574.5156       1.5172608
       7575.7156       1.4760626
       7576.9155       1.4747406
       7578.1154       1.4642042
       7579.3153       1.4395914
       7580.5152       1.4292542
       7581.7151       1.4378454
       7582.9150       1.4617602
       7584.1149       1.4894706
       7585.3148       1.4840098
       7586.5147       1.4546058
       7587.7146       1.4556208
       7588.9145       1.4410124
       7590.1144       1.4386944
       7591.3144       1.4202752
       7592.5144       1.3957974
       7593.7143       1.4507488
       7594.9142       1.4218298
       7596.1141       1.4465104
       7597.3140       1.4649916
       7598.5139       1.3906128
       7599.7138       1.3098482
       7600.9137       1.2628202
       7602.1136       1.1990306
       7603.3135       1.2239650
       7604.5134       1.1549338
       7605.7133       1.1554948
       7606.9133       1.1448564
       7608.1132       1.2151518
       7609.3131       1.2615342
       7610.5130       1.2589212
       7611.7129       1.3681830
       7612.9128       1.4117408
       7614.1127       1.4809698
       7615.3126       1.5715410
       7616.5125       1.6011322
       7617.7124       1.6060396
       7618.9123       1.5725548
       7620.1122       1.5456380
       7621.3122       1.5491754
       7622.5122       1.5415516
       7623.7121       1.5064200
       7624.9120       1.4897884
       7626.1119       1.5099918
       7627.3118       1.5354478
       7628.5117       1.5651046
       7629.7116       1.5745770
       7630.9115       1.5666090
       7632.1114       1.5605336
       7633.3113       1.5443170
       7634.5112       1.5189298
       7635.7111       1.5520788
       7636.9110       1.5677622
       7638.1110       1.5519948
       7639.3109       1.5861586
       7640.5108       1.6455472
       7641.7107       1.6779568
       7642.9106       1.6741554
       7644.1105       1.6483302
       7645.3104       1.6604856
       7646.5103       1.7123172
       7647.7102       1.7994966
       7648.9101       1.7927382
       7650.1101       1.7842170
       7651.3100       1.8540190
       7652.5099       1.9312920
       7653.7099       1.9682466
       7654.9098       1.9331560
       7656.1097       2.0241460
       7657.3096       1.9900006
       7658.5095       2.0374400
       7659.7094       2.0767060
       7660.9093       2.1956140
       7662.1092       2.3155320
       7663.3091       2.3630220
       7664.5090       2.3332620
       7665.7089       2.2012320
       7666.9088       2.1104080
       7668.1087       2.0631600
       7669.3087       2.0406520
       7670.5086       2.0457540
       7671.7085       2.0548760
       7672.9084       2.0561160
       7674.1083       2.0929720
       7675.3082       2.1418780
       7676.5081       2.1645360
       7677.7080       2.1727240
       7678.9080       2.1831300
       7680.1079       2.1910040
       7681.3078       2.1958780
       7682.5077       2.2152980
       7683.7076       2.2071620
       7684.9076       2.2122600
       7686.1075       2.2591620
       7687.3074       2.2843760
       7688.5073       2.2983800
       7689.7072       2.3325340
       7690.9071       2.3056680
       7692.1070       2.3582460
       7693.3069       2.3387320
       7694.5068       2.3683320
       7695.7067       2.4755200
       7696.9066       2.4939080
       7698.1065       2.5425060
       7699.3064       2.5105400
       7700.5064       2.4565220
       7701.7063       2.4445380
       7702.9062       2.3890960
       7704.1061       2.3696600
       7705.3060       2.4016460
       7706.5059       2.4156460
       7707.7059       2.4818640
       7708.9058       2.5872080
       7710.1057       2.7058820
       7711.3056       2.8501500
       7712.5055       2.9201180
       7713.7054       2.9440780
       7714.9054       2.9578760
       7716.1053       2.8652940
       7717.3052       2.7851220
       7718.5051       2.7260520
       7719.7050       2.6565300
       7720.9049       2.5817400
       7722.1048       2.5596660
       7723.3047       2.5717320
       7724.5046       2.5712440
       7725.7045       2.5682440
       7726.9044       2.5433920
       7728.1043       2.4891320
       7729.3042       2.4483880
       7730.5042       2.4099980
       7731.7041       2.4395660
       7732.9040       2.4463600
       7734.1039       2.4545360
       7735.3038       2.4504860
       7736.5038       2.4915980
       7737.7037       2.4111160
       7738.9036       2.4028060
       7740.1035       2.4431280
       7741.3034       2.4842360
       7742.5033       2.4392180
       7743.7032       2.5034600
       7744.9031       2.4885800
       7746.1031       2.5179800
       7747.3030       2.5875560
       7748.5029       2.7860420
       7749.7028       2.9212780
       7750.9027       2.9108600
       7752.1026       2.8055020
       7753.3025       2.7062720
       7754.5024       2.6315640
       7755.7023       2.5329220
       7756.9022       2.6285640
       7758.1021       2.6944940
       7759.3020       2.7181460
       7760.5019       2.7064660
       7761.7019       2.6593040
       7762.9018       2.6182960
       7764.1017       2.6076360
       7765.3017       2.6213340
       7766.5016       2.6247120
       7767.7015       2.6597900
       7768.9014       2.6777440
       7770.1013       2.6661240
       7771.3012       2.7107920
       7772.5011       2.7512700
       7773.7010       2.7277640
       7774.9009       2.7205880
       7776.1008       2.7553660
       7777.3008       2.7744000
       7778.5007       2.7909540
       7779.7006       2.8336200
       7780.9005       2.8460140
       7782.1004       2.8398720
       7783.3003       2.7923820
       7784.5002       2.8065480
       7785.7001       2.7758040
       7786.9000       2.7763840
       7788.0999       2.7620280
       7789.2998       2.8438740
       7790.4997       2.9106380
       7791.6996       3.0751920
       7792.8996       3.1265260
       7794.0996       3.1209900
       7795.2995       3.0682040
       7796.4994       3.0002420
       7797.6993       2.8745920
       7798.8992       2.7778260
       7800.0991       2.8524500
       7801.2990       2.8095120
       7802.4989       2.8586340
       7803.6988       2.8519360
       7804.8987       2.8960980
       7806.0986       2.9719640
       7807.2985       3.0059260
       7808.4985       2.9862640
       7809.6984       2.9908360
       7810.8983       2.9702260
       7812.0982       2.9117920
       7813.2981       2.8796560
       7814.4980       2.9013140
       7815.6979       2.8661640
       7816.8978       2.9410900
       7818.0977       3.0335700
       7819.2976       3.1147620
       7820.4975       3.2357960
       7821.6974       3.2804360
       7822.8974       3.2187360
       7824.0974       3.0924720
       7825.2973       2.9665660
       7826.4972       2.9001440
       7827.6971       2.8776300
       7828.8970       2.9004240
       7830.0969       2.8886760
       7831.2968       2.8871880
       7832.4967       2.9045580
       7833.6966       2.8990580
       7834.8965       2.8930640
       7836.0964       2.9410160
       7837.2963       2.9274780
       7838.4962       2.9651260
       7839.6962       3.0020060
       7840.8961       2.9919900
       7842.0960       3.0099140
       7843.2959       2.9910420
       7844.4958       2.9772000
       7845.6957       2.9007240
       7846.8956       2.9124200
       7848.0955       2.9788540
       7849.2954       3.0075860
       7850.4954       3.1647880
       7851.6953       3.3753860
       7852.8952       3.3833940
       7854.0951       3.3633540
       7855.2951       3.2739340
       7856.4950       3.1408260
       7857.6949       3.0616460
       7858.8948       3.0498140
       7860.0947       3.0366420
       7861.2946       3.0127500
       7862.4945       3.0198980
       7863.6944       2.9872760
       7864.8943       2.9438160
       7866.0942       2.9485080
       7867.2941       2.9936920
       7868.4940       3.0685840
       7869.6940       3.0995680
       7870.8939       3.0554340
       7872.0938       3.0110980
       7873.2937       2.9799440
       7874.4936       2.9583260
       7875.6935       2.9489200
       7876.8934       2.9560380
       7878.0933       2.9835460
       7879.2933       3.0107600
       7880.4932       3.0147540
       7881.6931       2.9887960
       7882.8930       2.9633700
       7884.0929       2.9594240
       7885.2929       2.9367360
       7886.4928       2.9598380
       7887.6927       3.0112780
       7888.8926       3.1008080
       7890.0925       3.1277820
       7891.2924       3.0506140
       7892.4923       2.9558380
       7893.6922       2.8792540
       7894.8921       2.8233680
       7896.0920       2.7924720
       7897.2919       2.8040360
       7898.4918       2.8128880
       7899.6917       2.7461140
       7900.8917       2.7909020
       7902.0916       2.7577740
       7903.2915       2.7585380
       7904.4914       2.8229260
       7905.6913       2.7778000
       7906.8912       2.7507740
       7908.0912       2.7968740
       7909.2911       2.8455040
       7910.4910       2.9472580
       7911.6909       3.1845020
       7912.8908       3.2870720
       7914.0907       3.2390080
       7915.2906       3.1315220
       7916.4906       2.9996540
       7917.6905       2.8690480
       7918.8904       2.8759720
       7920.0903       2.9421360
       7921.2902       2.9349040
       7922.4901       2.8735640
       7923.6900       2.7934380
       7924.8899       2.7391160
       7926.0898       2.7302520
       7927.2897       2.7219780
       7928.4896       2.7786840
       7929.6895       2.8247280
       7930.8894       2.8349040
       7932.0894       2.8557480
       7933.2893       2.7923640
       7934.4892       2.6955920
       7935.6891       2.6673820
       7936.8891       2.6443980
       7938.0890       2.6449620
       7939.2889       2.6431240
       7940.4888       2.6026680
       7941.6887       2.5921120
       7942.8886       2.5737720
       7944.0885       2.6181580
       7945.2884       2.6431000
       7946.4883       2.7145900
       7947.6883       2.7246520
       7948.8882       2.6587740
       7950.0881       2.6602820
       7951.2880       2.6014980
       7952.4879       2.6374720
       7953.6878       2.5476280
       7954.8877       2.5229720
       7956.0876       2.4926820
       7957.2875       2.5338280
       7958.4874       2.4824620
       7959.6873       2.5078060
       7960.8872       2.5417740
       7962.0871       2.6722420
       7963.2871       2.7472860
       7964.4870       2.8050080
       7965.6870       2.8272500
       7966.8869       2.7251520
       7968.0868       2.5841480
       7969.2867       2.5266500
       7970.4866       2.5196760
       7971.6865       2.4556400
       7972.8864       2.4579600
       7974.0863       2.4769180
       7975.2862       2.5493740
       7976.4861       2.5593760
       7977.6860       2.5920300
       7978.8860       2.6356040
       7980.0859       2.6210660
       7981.2858       2.5592240
       7982.4857       2.5150340
       7983.6856       2.4542860
       7984.8855       2.4042580
       7986.0854       2.4107200
       7987.2853       2.4345000
       7988.4852       2.4635160
       7989.6851       2.5276480
       7990.8850       2.6276140
       7992.0849       2.7388980
       7993.2848       2.8146840
       7994.4849       2.7820540
       7995.6848       2.6322580
       7996.8847       2.4750220
       7998.0846       2.4021000
       7999.2845       2.3506360
       8000.4844       2.4000720
       8001.6843       2.3852220
       8002.8842       2.3841380
       8004.0841       2.3295220
       8005.2840       2.3051920
       8006.4839       2.3354520
       8007.6838       2.3285880
       8008.8837       2.3402900
       8010.0837       2.3390560
       8011.2836       2.3842140
       8012.4835       2.4326480
       8013.6834       2.4190640
       8014.8833       2.5007820
       8016.0832       2.3904180
       8017.2831       2.3757720
       8018.4830       2.3186000
       8019.6829       2.3650820
       8020.8828       2.3530660
       8022.0827       2.4141980
       8023.2827       2.4976800
       8024.4827       2.5841220
       8025.6826       2.6141300
       8026.8825       2.5492400
       8028.0824       2.5436340
       8029.2823       2.3968020
       8030.4822       2.3063500
       8031.6821       2.2945840
       8032.8820       2.2471440
       8034.0819       2.2276520
       8035.2818       2.2233320
       8036.4817       2.2269340
       8037.6816       2.2206820
       8038.8815       2.1885760
       8040.0815       2.1877560
       8041.2814       2.2137200
       8042.4813       2.1817780
       8043.6812       2.1583240
       8044.8811       2.1698860
       8046.0810       2.1631920
       8047.2809       2.1600260
       8048.4808       2.1769680
       8049.6807       2.2076080
       8050.8806       2.2126920
       8052.0806       2.1835960
       8053.2805       2.1736980
       8054.4804       2.1475120
       8055.6804       2.1139760
       8056.8803       2.1121900
       8058.0802       2.1355860
       8059.2801       2.1444560
       8060.4800       2.2068760
       8061.6799       2.2248240
       8062.8798       2.2716300
       8064.0797       2.2164200
       8065.2796       2.1151160
       8066.4795       2.0699760
       8067.6794       2.0629880
       8068.8793       2.0324440
       8070.0792       2.0499500
       8071.2792       2.0459620
       8072.4791       2.0002360
       8073.6790       2.0119440
       8074.8789       2.0104600
       8076.0788       1.9887420
       8077.2787       2.0480800
       8078.4786       2.0473640
       8079.6785       1.9973880
       8080.8785       1.9828710
       8082.0784       2.0216940
       8083.2783       1.9891040
       8084.4782       1.9700554
       8085.6781       1.9891270
       8086.8781       1.9758960
       8088.0780       1.9213036
       8089.2779       1.9441428
       8090.4778       2.0003760
       8091.6777       1.9999100
       8092.8776       1.9600494
       8094.0775       1.9783402
       8095.2774       1.9971260
       8096.4773       1.9858624
       8097.6772       1.9639420
       8098.8771       1.9728024
       8100.0770       1.9908294
       8101.2769       2.0019880
       8102.4769       2.0337760
       8103.6768       2.0022620
       8104.8767       1.9881596
       8106.0766       1.9782718
       8107.2765       1.9270086
       8108.4764       1.9012790
       8109.6764       1.9105664
       8110.8763       1.9116066
       8112.0762       1.9010914
       8113.2761       1.8962458
       8114.4760       1.8994676
       8115.6759       1.9055440
       8116.8758       1.9090012
       8118.0758       1.8833090
       8119.2757       1.8497236
       8120.4756       1.8518044
       8121.6755       1.8826596
       8122.8754       1.8859746
       8124.0753       1.8557794
       8125.2752       1.8221634
       8126.4751       1.7812818
       8127.6750       1.7914452
       8128.8749       1.7744398
       8130.0748       1.7278466
       8131.2747       1.7019236
       8132.4746       1.6732742
       8133.6746       1.6491918
       8134.8745       1.6604056
       8136.0744       1.6137752
       8137.2743       1.6220038
       8138.4743       1.6377750
       8139.6742       1.6070392
       8140.8741       1.5650558
       8142.0740       1.4944024
       8143.2739       1.5633828
       8144.4738       1.5558746
       8145.6737       1.5670190
       8146.8736       1.5021308
       8148.0735       1.4900040
       8149.2735       1.4927420
       8150.4734       1.4290694
       8151.6733       1.4360948
       8152.8732       1.4130516
       8154.0731       1.4070842
       8155.2730       1.4361750
       8156.4729       1.3915678
       8157.6728       1.3979398
       8158.8727       1.4294810
       8160.0726       1.3652298
       8161.2725       1.3515006
       8162.4724       1.2997428
       8163.6724       1.2900964
       8164.8723       1.2938302
       8166.0722       1.3029032
       8167.2722       1.3046206
       8168.4721       1.2821414
       8169.6720       1.2704198
       8170.8719       1.2652350
       8172.0718       1.2430176
       8173.2717       1.2239314
       8174.4716       1.2087264
       8175.6715       1.1930286
       8176.8714       1.1311090
       8178.0713       1.0723046
       8179.2713       1.0497650
       8180.4712       1.0772016
       8181.6711       1.0963290
       8182.8710       1.0770390
       8184.0709       1.0865954
       8185.2708       1.0609270
       8186.4707       1.0229202
       8187.6706      0.99531360
       8188.8705      0.95106920
       8190.0704      0.94339580
       8191.2703      0.93792500
       8192.4702      0.92723080
       8193.6701      0.90907680
       8194.8701      0.88967800
       8196.0701      0.88456820
       8197.2700      0.84806380
       8198.4699      0.86345660
       8199.6698      0.82200160
       8200.8697      0.79895140
       8202.0696      0.82221400
       8203.2695      0.81789720
       8204.4694      0.82291500
       8205.6693      0.79886880
       8206.8692      0.79888960
       8208.0691      0.77501300
       8209.2690      0.75679480
       8210.4690      0.70500000
       8211.6689      0.69586020
       8212.8688      0.69960440
       8214.0687      0.67851700
       8215.2686      0.69923760
       8216.4685      0.67516240
       8217.6684      0.65229380
       8218.8683      0.64316500
       8220.0682      0.61316480
       8221.2681      0.60506100
       8222.4680      0.60723860
       8223.6679      0.60650280
       8224.8679      0.57406920
       8226.0679      0.54739360
       8227.2678      0.51692140
       8228.4677      0.50201360
       8229.6676      0.47674360
       8230.8675      0.52200100
       8232.0674      0.53697120
       8233.2673      0.55609280
       8234.4672      0.55577560
       8235.6671      0.53903320
       8236.8670      0.55742020
       8238.0669      0.57296520
       8239.2668      0.58270120
       8240.4667      0.56743180
       8241.6667      0.54125360
       8242.8666      0.53547520
       8244.0665      0.55306720
       8245.2664      0.56927260
       8246.4663      0.56739580
       8247.6662      0.57424260
       8248.8661      0.56685800
       8250.0660      0.54729080
       8251.2659      0.54238620
       8252.4659      0.54406140
       8253.6658      0.55897380
       8254.8657      0.57462120
       8256.0656      0.56182660
       8257.2656      0.55127280
       8258.4655      0.56168080
       8259.6654      0.56973640
       8260.8653      0.56453540
       8262.0652      0.56551440
       8263.2651      0.58808040
       8264.4650      0.59589180
       8265.6649      0.58548480
       8266.8648      0.59767560
       8268.0647      0.61039700
       8269.2646      0.61857100
       8270.4645      0.60433340
       8271.6644      0.62031280
       8272.8644      0.63143520
       8274.0643      0.63679220
       8275.2642      0.66619780
       8276.4641      0.73779660
       8277.6640      0.81025120
       8278.8639      0.89972360
       8280.0638      0.97800620
       8281.2638       1.0036352
       8282.4637      0.97334800
       8283.6636      0.92873300
       8284.8635      0.96744900
       8286.0634      0.97421700
       8287.2633       1.0390992
       8288.4633       1.0758400
       8289.6632       1.0233644
       8290.8631      0.92766520
       8292.0630      0.84280340
       8293.2629      0.78615820
       8294.4628      0.87511040
       8295.6627       1.0288566
       8296.8626       1.0878574
       8298.0625       1.2175914
       8299.2624       1.1151392
       8300.4623       1.0494756
       8301.6622      0.93788520
       8302.8621      0.81274140
       8304.0621      0.76599720
       8305.2620      0.78291560
       8306.4619      0.81359760
       8307.6618      0.84239340
       8308.8617      0.88124020
       8310.0617      0.93061880
       8311.2616      0.88597380
       8312.4615      0.88236100
       8313.6614      0.85776620
       8314.8613      0.82645680
       8316.0612      0.81453480
       8317.2611      0.81420300
       8318.4611      0.81278400
       8319.6610      0.79926060
       8320.8609      0.79701680
       8322.0608      0.79682180
       8323.2607      0.80979560
       8324.4606      0.82371880
       8325.6605      0.81519740
       8326.8604      0.82443820
       8328.0603      0.82404840
       8329.2602      0.80692680
       8330.4601      0.80481300
       8331.6600      0.77978820
       8332.8599      0.76686240
       8334.0599      0.79991340
       8335.2598      0.80252780
       8336.4597      0.78574880
       8337.6596      0.79839620
       8338.8596      0.82748660
       8340.0595      0.92923060
       8341.2594       1.1348374
       8342.4593       1.4033246
       8343.6592       1.6209186
       8344.8591       1.6374212
       8346.0590       1.4766160
       8347.2589       1.2324784
       8348.4588       1.0035998
       8349.6588      0.93990660
       8350.8587       1.0018414
       8352.0586       1.0638750
       8353.2585       1.0582402
       8354.4584      0.96398080
       8355.6583      0.88220240
       8356.8582      0.78733740
       8358.0581      0.75802960
       8359.2580      0.76287200
       8360.4579      0.78019720
       8361.6578      0.80821740
       8362.8577      0.84509280
       8364.0576      0.85817420
       8365.2576      0.86100960
       8366.4575      0.81813480
       8367.6575      0.79442060
       8368.8574      0.79439000
       8370.0573      0.77952340
       8371.2572      0.78725140
       8372.4571      0.73956420
       8373.6570      0.76157540
       8374.8569      0.77103120
       8376.0568      0.77978260
       8377.2567      0.77136280
       8378.4566      0.84095940
       8379.6565      0.91442880
       8380.8565      0.99304920
       8382.0564       1.0322288
       8383.2563       1.0098672
       8384.4562      0.99399280
       8385.6561      0.89419620
       8386.8560      0.88033040
       8388.0559      0.83486620
       8389.2558      0.84837160
       8390.4557      0.86486360
       8391.6556      0.82930240
       8392.8555      0.83179780
       8394.0554      0.90717460
       8395.2553       1.0546650
       8396.4554       1.2426444
       8397.6553       1.4380834
       8398.8552       1.5358738
       8400.0551       1.4863492
       8401.2550       1.3610578
       8402.4549       1.1408762
       8403.6548      0.97833440
       8404.8547      0.96045040
       8406.0546      0.91726200
       8407.2545      0.94448840
       8408.4544      0.98382520
       8409.6543      0.99520600
       8410.8542       1.0300214
       8412.0542       1.1054530
       8413.2541       1.1721734
       8414.4540       1.2566324
       8415.6539       1.2571516
       8416.8538       1.2308692
       8418.0537       1.1444788
       8419.2536       1.0602442
       8420.4535       1.0452740
       8421.6534       1.0684508
       8422.8533       1.0770258
       8424.0532       1.0929226
       8425.2532       1.1642264
       8426.4531       1.3059622
       8427.6531       1.5378682
       8428.8530       1.7898764
       8430.0529       1.9521498
       8431.2528       1.8685854
       8432.4527       1.6007604
       8433.6526       1.3688092
       8434.8525       1.2603786
       8436.0524       1.2095724
       8437.2523       1.1983456
       8438.4522       1.2177002
       8439.6521       1.2544196
       8440.8520       1.2678852
       8442.0519       1.2407852
       8443.2519       1.2387862
       8444.4518       1.2598242
       8445.6517       1.2855334
       8446.8516       1.3081648
       8448.0515       1.3542634
       8449.2514       1.4090794
       8450.4513       1.5066460
       8451.6512       1.6156412
       8452.8511       1.6476598
       8454.0511       1.5953036
       8455.2510       1.5167328
       8456.4509       1.4614638
       8457.6508       1.4293084
       8458.8508       1.4698688
       8460.0507       1.4756552
       8461.2506       1.5698280
       8462.4505       1.7943228
       8463.6504       1.9558330
       8464.8503       2.0769240
       8466.0502       2.0861400
       8467.2501       1.9625552
       8468.4500       1.7700936
       8469.6499       1.5795594
       8470.8498       1.5792564
       8472.0497       1.5553692
       8473.2497       1.5924164
       8474.4496       1.6042250
       8475.6495       1.5765072
       8476.8494       1.6122584
       8478.0493       1.6639082
       8479.2492       1.6937626
       8480.4491       1.6602190
       8481.6490       1.6700404
       8482.8490       1.7254854
       8484.0489       1.7143198
       8485.2488       1.7545746
       8486.4487       1.7758004
       8487.6486       1.7515714
       8488.8486       1.7886494
       8490.0485       1.8204260
       8491.2484       1.9323764
       8492.4483       1.9585260
       8493.6482       2.0394880
       8494.8481       1.9923858
       8496.0480       1.9318194
       8497.2479       1.9129766
       8498.4478       1.9185158
       8499.6477       1.9086240
       8500.8476       2.0059860
       8502.0475       2.1181880
       8503.2474       2.2647240
       8504.4474       2.2804280
       8505.6473       2.2698700
       8506.8472       2.1932460
       8508.0471       2.1282760
       8509.2470       2.0074340
       8510.4469       2.0373480
       8511.6469       2.0119960
       8512.8468       2.0139120
       8514.0467       2.0454360
       8515.2466       2.0366520
       8516.4465       2.0726140
       8517.6464       2.0769920
       8518.8463       2.0945360
       8520.0463       2.1084060
       8521.2462       2.1237260
       8522.4461       2.1403100
       8523.6460       2.1536760
       8524.8459       2.1550660
       8526.0458       2.1959760
       8527.2457       2.1734760
       8528.4456       2.1765980
       8529.6455       2.1924760
       8530.8454       2.2019560
       8532.0453       2.1978600
       8533.2452       2.1918820
       8534.4451       2.2169360
       8535.6451       2.2457680
       8536.8450       2.3073840
       8538.0449       2.3292100
       8539.2448       2.3404780
       8540.4448       2.3418000
       8541.6447       2.3832880
       8542.8446       2.3809620
       8544.0445       2.3704820
       8545.2444       2.3837300
       8546.4443       2.4590200
       8547.6442       2.4666440
       8548.8441       2.4428600
       8550.0440       2.4850920
       8551.2440       2.4429480
       8552.4439       2.3712920
       8553.6438       2.3631200
       8554.8437       2.3663400
       8556.0436       2.3603520
       8557.2435       2.3429860
       8558.4434       2.3550640
       8559.6433       2.3930560
       8560.8432       2.4054780
       8562.0431       2.3597600
       8563.2430       2.3535720
       8564.4429       2.4004660
       8565.6428       2.4261360
       8566.8428       2.4082740
       8568.0427       2.3691240
       8569.2427       2.3659760
       8570.4426       2.4203080
       8571.6425       2.4308300
       8572.8424       2.3985000
       8574.0423       2.4202000
       8575.2422       2.4342240
       8576.4421       2.4038040
       8577.6420       2.3918840
       8578.8419       2.4091900
       8580.0418       2.4224980
       8581.2417       2.4431780
       8582.4417       2.4452260
       8583.6416       2.4059500
       8584.8415       2.4055400
       8586.0414       2.4481780
       8587.2413       2.4866840
       8588.4412       2.4611240
       8589.6411       2.4927280
       8590.8410       2.4940920
       8592.0409       2.4833040
       8593.2408       2.4984360
       8594.4407       2.5322200
       8595.6406       2.5286340
       8596.8405       2.4934760
       8598.0406       2.5123720
       8599.2405       2.5504540
       8600.4404       2.5189260
       8601.6403       2.4888040
       8602.8402       2.4649240
       8604.0401       2.4443040
       8605.2400       2.4802180
       8606.4399       2.5470000
       8607.6398       2.5402360
       8608.8397       2.5481080
       8610.0396       2.5378680
       8611.2395       2.5068320
       8612.4395       2.5500980
       8613.6394       2.6013360
       8614.8393       2.6507560
       8616.0392       2.6800860
       8617.2391       2.6812800
       8618.4390       2.6875900
       8619.6389       2.7459140
       8620.8388       2.7445080
       8622.0387       2.8073660
       8623.2386       2.8164060
       8624.4385       2.8098320
       8625.6384       2.8151140
       8626.8384       2.8215420
       8628.0384       2.8702580
       8629.2383       2.8787420
       8630.4382       2.8749100
       8631.6381       2.9183460
       8632.8380       2.8776540
       8634.0379       2.8187100
       8635.2378       2.7866060
       8636.4377       2.7845420
       8637.6376       2.7132180
       8638.8375       2.7338920
       8640.0374       2.6924560
       8641.2373       2.6910360
       8642.4372       2.6627640
       8643.6372       2.6620120
       8644.8371       2.6426800
       8646.0370       2.6837240
       8647.2369       2.7258360
       8648.4368       2.7775700
       8649.6367       2.8168100
       8650.8366       2.8454220
       8652.0365       2.8839040
       8653.2364       2.8881260
       8654.4363       2.8803300
       8655.6363       2.8781800
       8656.8362       2.9033100
       8658.0361       2.8788840
       8659.2361       2.8302900
       8660.4360       2.8559980
       8661.6359       2.8329400
       8662.8358       2.8482320
       8664.0357       2.8800800
       8665.2356       2.8653220
       8666.4355       2.8736380
       8667.6354       2.8242820
       8668.8353       2.8582360
       8670.0352       2.8257580
       8671.2351       2.7695120
       8672.4350       2.7986720
       8673.6349       2.8203140
       8674.8349       2.7494420
       8676.0348       2.7330060
       8677.2347       2.7119900
       8678.4346       2.6885560
       8679.6345       2.7368380
       8680.8344       2.7224580
       8682.0343       2.7702860
       8683.2343       2.6788220
       8684.4342       2.6769140
       8685.6341       2.6511200
       8686.8340       2.6703160
       8688.0339       2.7509000
       8689.2338       2.6614460
       8690.4338       2.6553780
       8691.6337       2.5901580
       8692.8336       2.6707660
       8694.0335       2.5972680
       8695.2334       2.6136020
       8696.4333       2.5770480
       8697.6332       2.5403880
       8698.8331       2.6528580
       8700.0330       2.6097500
       8701.2329       2.5211540
       8702.4328       2.5229360
       8703.6327       2.5395500
       8704.8326       2.5026220
       8706.0326       2.5984320
       8707.2325       2.5450380
       8708.4324       2.5174700
       8709.6323       2.4926200
       8710.8322       2.5105160
       8712.0322       2.4513280
       8713.2321       2.4304340
       8714.4320       2.4392820
       8715.6319       2.4655080
       8716.8318       2.4604780
       8718.0317       2.4474420
       8719.2316       2.4106240
       8720.4315       2.4194180
       8721.6315       2.3974500
       8722.8314       2.4251520
       8724.0313       2.4150420
       8725.2312       2.3789760
       8726.4311       2.3715240
       8727.6310       2.3561960
       8728.8309       2.3588120
       8730.0308       2.3912640
       8731.2307       2.3183980
       8732.4306       2.3531220
       8733.6305       2.3219700
       8734.8304       2.2971420
       8736.0303       2.2917160
       8737.2303       2.2503260
       8738.4302       2.2669420
       8739.6301       2.2692680
       8740.8301       2.2299520
       8742.0300       2.2267800
       8743.2299       2.2094480
       8744.4298       2.2083080
       8745.6297       2.1690560
       8746.8296       2.2387320
       8748.0295       2.0778540
       8749.2294       2.1167780
       8750.4293       2.0723500
       8751.6292       2.0715800
       8752.8292       2.1015320
       8754.0291       2.1056840
       8755.2290       2.2055380
       8756.4289       2.2834540
       8757.6288       2.3948200
       8758.8287       2.5475140
       8760.0286       2.7371860
       8761.2285       2.6850000
       8762.4284       2.6382260
       8763.6283       2.5824560
       8764.8282       2.5630720
       8766.0281       2.6829480
       8767.2281       2.7092720
       8768.4280       2.6251300
       8769.6280       2.4534460
       8770.8279       2.2388800
       8772.0278       2.1284840
       8773.2277       2.1130960
       8774.4276       2.2796020
       8775.6275       2.5020060
       8776.8274       2.6747760
       8778.0273       2.5709160
       8779.2272       2.4690320
       8780.4271       2.2840160
       8781.6270       2.0779060
       8782.8270       1.9347060
       8784.0269       1.9081680
       8785.2268       1.9131008
       8786.4267       1.9383758
       8787.6266       1.9349124
       8788.8265       1.9630302
       8790.0264       2.0564900
       8791.2263       2.0345500
       8792.4262       2.0132820
       8793.6261       1.9573956
       8794.8260       1.8602756
       8796.0259       1.8038664
       8797.2258       1.8207908
       8798.4259       1.8082282
       8799.6258       1.7857322
       8800.8257       1.7765722
       8802.0256       1.7786882
       8803.2255       1.7565130
       8804.4254       1.7633876
       8805.6253       1.7892190
       8806.8252       1.7784772
       8808.0251       1.7586522
       8809.2250       1.7985914
       8810.4249       1.7500774
       8811.6248       1.7834334
       8812.8247       1.7229792
       8814.0247       1.7462648
       8815.2246       1.7225208
       8816.4245       1.7128674
       8817.6244       1.7104542
       8818.8243       1.7032010
       8820.0242       1.6840494
       8821.2241       1.7737022
       8822.4240       1.9163872
       8823.6239       2.1665440
       8824.8238       2.5913760
       8826.0237       2.8783620
       8827.2237       3.0274640
       8828.4236       2.8172340
       8829.6236       2.4279600
       8830.8235       1.9829390
       8832.0234       1.8982406
       8833.2233       1.9280194
       8834.4232       2.0208020
       8835.6231       2.1443260
       8836.8230       2.1396800
       8838.0229       2.0375540
       8839.2228       1.8894768
       8840.4227       1.7573906
       8841.6226       1.6428438
       8842.8225       1.6305896
       8844.0224       1.6417646
       8845.2224       1.6676948
       8846.4223       1.7238998
       8847.6222       1.7347974
       8848.8221       1.7508414
       8850.0220       1.8105846
       8851.2219       1.7432330
       8852.4218       1.7028688
       8853.6217       1.6561966
       8854.8216       1.6088276
       8856.0216       1.6075170
       8857.2215       1.5976664
       8858.4214       1.5863792
       8859.6213       1.5988794
       8860.8213       1.6066680
       8862.0212       1.6220956
       8863.2211       1.6898228
       8864.4210       1.7551428
       8865.6209       1.8591922
       8866.8208       1.9241180
       8868.0207       1.9201202
       8869.2206       1.8439706
       8870.4205       1.6871410
       8871.6204       1.5753452
       8872.8203       1.5673868
       8874.0202       1.5248696
       8875.2201       1.5577000
       8876.4201       1.5451660
       8877.6200       1.5603410
       8878.8199       1.5757304
       8880.0198       1.5799088
       8881.2197       1.6486652
       8882.4196       1.8730052
       8883.6195       2.2084040
       8884.8195       2.4373160
       8886.0194       2.4423260
       8887.2193       2.2550100
       8888.4192       1.9862612
       8889.6191       1.7571150
       8890.8190       1.5407672
       8892.0190       1.4894012
       8893.2189       1.5118442
       8894.4188       1.5090248
       8895.6187       1.5242462
       8896.8186       1.5032950
       8898.0185       1.5032362
       8899.2184       1.5904766
       8900.4183       1.7383736
       8901.6182       1.8991662
       8902.8181       2.0308440
       8904.0180       1.9547048
       8905.2179       1.7755244
       8906.4178       1.6254572
       8907.6178       1.5267042
       8908.8177       1.4890852
       8910.0176       1.4985552
       8911.2175       1.4552610
       8912.4174       1.4725310
       8913.6174       1.4139050
       8914.8173       1.5525192
       8916.0172       1.7279066
       8917.2171       2.1416620
       8918.4170       2.4348640
       8919.6169       2.5536500
       8920.8168       2.4157660
       8922.0168       2.0919840
       8923.2167       1.6637822
       8924.4166       1.4543752
       8925.6165       1.4548604
       8926.8164       1.4404358
       8928.0163       1.3938162
       8929.2162       1.4064028
       8930.4161       1.4053656
       8931.6160       1.3628296
       8932.8159       1.3754442
       8934.0158       1.3620614
       8935.2157       1.3270420
       8936.4156       1.3494404
       8937.6156       1.3756926
       8938.8155       1.4300752
       8940.0154       1.4490146
       8941.2153       1.5974132
       8942.4153       1.6743034
       8943.6152       1.7791404
       8944.8151       1.6522856
       8946.0150       1.5069426
       8947.2149       1.3593014
       8948.4148       1.3191780
       8949.6147       1.2691848
       8950.8146       1.3275722
       8952.0145       1.3025838
       8953.2145       1.3127800
       8954.4144       1.4260208
       8955.6143       1.7760634
       8956.8142       2.1917420
       8958.0141       2.2319100
       8959.2140       2.1058320
       8960.4139       1.8542112
       8961.6138       1.4880476
       8962.8137       1.3144130
       8964.0136       1.2277788
       8965.2135       1.2351806
       8966.4134       1.2770096
       8967.6133       1.2714054
       8968.8133       1.2936412
       8970.0132       1.2925828
       8971.2132       1.2214356
       8972.4131       1.2314934
       8973.6130       1.2189710
       8974.8129       1.2667610
       8976.0128       1.2536648
       8977.2127       1.2410478
       8978.4126       1.2647330
       8979.6125       1.2460476
       8980.8124       1.2176180
       8982.0123       1.2674958
       8983.2122       1.2680612
       8984.4122       1.2780676
       8985.6121       1.3101620
       8986.8120       1.3712470
       8988.0119       1.3885426
       8989.2118       1.3195364
       8990.4117       1.2563554
       8991.6116       1.1985890
       8992.8115       1.1869128
       8994.0114       1.1939828
       8995.2113       1.2203196
       8996.4112       1.2498284
       8997.6111       1.3238164
       8998.8110       1.4482610
       9000.0111       1.6279722
       9001.2110       1.6475304
       9002.4109       1.5603080
       9003.6108       1.4424422
       9004.8107       1.3241214
       9006.0106       1.1974044
       9007.2105       1.1949936
       9008.4104       1.1693568
       9009.6103       1.1647028
       9010.8102       1.1671352
       9012.0101       1.1748164
       9013.2100       1.1587138
       9014.4099       1.1707718
       9015.6099       1.1422490
       9016.8098       1.1431880
       9018.0097       1.1665166
       9019.2096       1.1913048
       9020.4095       1.2021040
       9021.6094       1.1885838
       9022.8093       1.1822448
       9024.0092       1.2026500
       9025.2091       1.1652666
       9026.4090       1.1839928
       9027.6089       1.2409616
       9028.8089       1.2152120
       9030.0088       1.2289562
       9031.2088       1.2561976
       9032.4087       1.2807140
       9033.6086       1.2807398
       9034.8085       1.3061174
       9036.0084       1.3783578
       9037.2083       1.4369476
       9038.4082       1.4364898
       9039.6081       1.3989128
       9040.8080       1.3526764
       9042.0079       1.3269764
       9043.2078       1.2883842
       9044.4077       1.2806202
       9045.6076       1.3532688
       9046.8076       1.4241776
       9048.0075       1.4987142
       9049.2074       1.5701932
       9050.4073       1.5634522
       9051.6072       1.4721138
       9052.8071       1.4038472
       9054.0070       1.3720798
       9055.2069       1.3478116
       9056.4068       1.3483940
       9057.6068       1.3748418
       9058.8067       1.3577644
       9060.0066       1.3315720
       9061.2066       1.3507252
       9062.4065       1.3423856
       9063.6064       1.3707806
       9064.8063       1.3795936
       9066.0062       1.4005208
       9067.2061       1.3680058
       9068.4060       1.3506784
       9069.6059       1.3384720
       9070.8058       1.2935746
       9072.0057       1.3094966
       9073.2056       1.2967678
       9074.4055       1.3248788
       9075.6054       1.3761500
       9076.8054       1.3819818
       9078.0053       1.3790148
       9079.2052       1.3270754
       9080.4051       1.3389454
       9081.6050       1.3570880
       9082.8049       1.3920802
       9084.0048       1.4145192
       9085.2048       1.4194700
       9086.4047       1.4212922
       9087.6046       1.4552258
       9088.8045       1.4361262
       9090.0044       1.4985786
       9091.2043       1.5640910
       9092.4043       1.5352942
       9093.6042       1.5175978
       9094.8041       1.5135522
       9096.0040       1.5732658
       9097.2039       1.5577396
       9098.4038       1.5234530
       9099.6037       1.5519352
       9100.8036       1.6565250
       9102.0035       1.6344728
       9103.2034       1.7023314
       9104.4033       1.7218262
       9105.6032       1.5207164
       9106.8031       1.5847520
       9108.0031       1.5827216
       9109.2030       1.5861284
       9110.4029       1.6235798
       9111.6028       1.6382982
       9112.8027       1.6281748
       9114.0027       1.6588248
       9115.2026       1.6378074
       9116.4025       1.6083446
       9117.6024       1.5476414
       9118.8023       1.5601500
       9120.0022       1.5489184
       9121.2021       1.6096300
       9122.4020       1.6674662
       9123.6020       1.6560936
       9124.8019       1.6432556
       9126.0018       1.6609124
       9127.2017       1.6455790
       9128.4016       1.6344712
       9129.6015       1.5907388
       9130.8014       1.5561098
       9132.0013       1.5741156
       9133.2012       1.6110584
       9134.4011       1.5819632
       9135.6010       1.5494714
       9136.8009       1.5766266
       9138.0008       1.6359328
       9139.2008       1.6938856
       9140.4007       1.7034332
       9141.6006       1.7128504
       9142.8006       1.7412988
       9144.0005       1.7661628
       9145.2004       1.7548712
       9146.4003       1.7313426
       9147.6002       1.7186412
       9148.8001       1.7404758
       9150.0000       1.7436642
