Units are: observed wavelength (Ang), observed flux (10^-15 erg/s/cm^2/Ang)
       3475.0000    -0.015591940
       3476.4700     0.028354640
       3477.9400       1.5131500
       3479.4100       2.8780010
       3480.8800      0.18503190
       3482.3500      0.22896290
       3483.8200     0.073607680
       3485.2900     -0.11178040
       3486.7600      0.34797730
       3488.2300      0.24948160
       3489.7000     0.013614520
       3491.1700      0.16591890
       3492.6400      0.18251500
       3494.1100      0.29850890
       3495.5800       1.6880030
       3497.0500       1.8339750
       3498.5201     -0.21021090
       3499.9900      0.25603780
       3501.4600     0.013744490
       3502.9300     -0.35082540
       3504.4000     -0.38296250
       3505.8700      0.10260830
       3507.3400      0.37999380
       3508.8100      0.14696580
       3510.2800    -0.097056720
       3511.7500   0.00014236510
       3513.2200     -0.12333930
       3514.6900     0.019979710
       3516.1600      0.27495460
       3517.6300     0.096712950
       3519.1000     -0.11582010
       3520.5700     -0.16581020
       3522.0400       1.5307550
       3523.5100       2.9726340
       3524.9800       1.9824220
       3526.4500      0.53494100
       3527.9200      0.29950980
       3529.3900      0.31077020
       3530.8600      0.50823830
       3532.3300      0.18710950
       3533.8000    -0.034216270
       3535.2700      0.12278840
       3536.7400      0.19699950
       3538.2100      0.41966830
       3539.6800      0.30359730
       3541.1500     0.059628180
       3542.6200     -0.19577360
       3544.0900     0.055476670
       3545.5600      0.17649580
       3547.0300    -0.093381670
       3548.5000      0.12198570
       3549.9700      0.29784250
       3551.4400     0.038978540
       3552.9100      0.24398680
       3554.3800      0.61279750
       3555.8500      0.29788450
       3557.3200     0.058559060
       3558.7900      0.24818680
       3560.2600      0.58687380
       3561.7300      0.17197890
       3563.2000      0.57115270
       3564.6700      0.88364550
       3566.1400     0.072621000
       3567.6100      0.10228480
       3569.0800      0.21803290
       3570.5500      0.23469910
       3572.0200      0.21243180
       3573.4900      0.36230270
       3574.9600      0.41738100
       3576.4300      0.33670980
       3577.9000      0.26328990
       3579.3700      0.21640120
       3580.8400      0.15170590
       3582.3100      0.40869970
       3583.7800      0.29614710
       3585.2500     0.098508130
       3586.7200      0.40792350
       3588.1900      0.43787300
       3589.6600      0.33320360
       3591.1300      0.37206120
       3592.6000      0.65036640
       3594.0700      0.37898370
       3595.5400     0.095083260
       3597.0100      0.30985720
       3598.4800      0.39599890
       3599.9500      0.31165080
       3601.4200      0.31453820
       3602.8900      0.52975340
       3604.3600      0.35762970
       3605.8300      0.57289940
       3607.3000      0.42678250
       3608.7700      0.18700900
       3610.2400      0.28974990
       3611.7100      0.23493090
       3613.1800      0.30826080
       3614.6500      0.26394230
       3616.1200      0.18823520
       3617.5900       1.0284040
       3619.0600      0.41047370
       3620.5300     0.019559020
       3622.0000      0.26915670
       3623.4700      0.19547470
       3624.9400      0.26358320
       3626.4100      0.19440240
       3627.8800      0.22748730
       3629.3500      0.22925700
       3630.8200      0.30255280
       3632.2900      0.34636010
       3633.7600       1.3852500
       3635.2300      0.99092080
       3636.7000      0.31175800
       3638.1700     0.078533970
       3639.6400    -0.013369510
       3641.1100     0.074419630
       3642.5800      0.29116600
       3644.0500     0.048303240
       3645.5200      0.15261440
       3646.9900      0.62039140
       3648.4600      0.23920400
       3649.9300    -0.087129800
       3651.4000      0.22917460
       3652.8700      0.13562280
       3654.3400      0.22324370
       3655.8100      0.26569360
       3657.2800     0.020135580
       3658.7500      0.12395740
       3660.2200      0.10757260
       3661.6900      0.18022720
       3663.1600      0.27168770
       3664.6300      0.53907110
       3666.1000      0.34367150
       3667.5700      0.39816610
       3669.0400      0.47154300
       3670.5100      0.24333400
       3671.9800      0.11233000
       3673.4500      0.57498640
       3674.9200      0.76402480
       3676.3900      0.29565240
       3677.8600      0.43312230
       3679.3300      0.48728070
       3680.8000      0.24892880
       3682.2700      0.35741710
       3683.7400      0.59209150
       3685.2100      0.45050630
       3686.6800      0.21214060
       3688.1500      0.40214940
       3689.6200      0.67612830
       3691.0900      0.94891730
       3692.5600      0.86875590
       3694.0300      0.44146170
       3695.5000      0.20784680
       3696.9700      0.19226730
       3698.4400      0.57227390
       3699.9100      0.58740540
       3701.3800      0.53690660
       3702.8500      0.37327630
       3704.3200      0.67446160
       3705.7900      0.86542450
       3707.2600      0.75342040
       3708.7300      0.51922070
       3710.2000      0.31295840
       3711.6700      0.40855210
       3713.1400      0.42433950
       3714.6100      0.18700970
       3716.0800      0.24659960
       3717.5500      0.26033400
       3719.0200      0.30480190
       3720.4900      0.30350440
       3721.9600      0.37446680
       3723.4300      0.19863780
       3724.9000      0.20720530
       3726.3700      0.27443130
       3727.8400      0.32059760
       3729.3100      0.71101800
       3730.7800      0.36935560
       3732.2500      0.42824410
       3733.7200      0.42320500
       3735.1900      0.74872990
       3736.6600      0.38202370
       3738.1300      0.28599440
       3739.6000     0.056942460
       3741.0700      0.41350980
       3742.5400      0.60777920
       3744.0100      0.87352610
       3745.4800      0.55899750
       3746.9500      0.35935710
       3748.4200      0.25571050
       3749.8900      0.46122350
       3751.3600      0.22745420
       3752.8300      0.40515490
       3754.3000      0.35669740
       3755.7700      0.35489510
       3757.2400      0.47638960
       3758.7100      0.44275110
       3760.1800      0.18752400
       3761.6500      0.34319590
       3763.1200      0.59040260
       3764.5900      0.18025680
       3766.0600     0.057309080
       3767.5300      0.19422370
       3769.0000      0.52541560
       3770.4700      0.52826730
       3771.9400      0.25306660
       3773.4100      0.44165130
       3774.8800      0.44189160
       3776.3500      0.12189580
       3777.8200      0.31448210
       3779.2900      0.36558680
       3780.7600      0.29165600
       3782.2300      0.27139110
       3783.7000      0.22160790
       3785.1700      0.16997990
       3786.6400      0.20030420
       3788.1100      0.19237100
       3789.5800      0.24546550
       3791.0500      0.32859240
       3792.5200      0.24911890
       3793.9900      0.19011550
       3795.4600      0.18231270
       3796.9300      0.42705150
       3798.4000      0.32980700
       3799.8700      0.17034940
       3801.3400      0.21405630
       3802.8100      0.24982850
       3804.2800      0.53520450
       3805.7500      0.38216180
       3807.2200      0.14593500
       3808.6900      0.17633620
       3810.1600      0.24389270
       3811.6301      0.23095140
       3813.1000      0.12705870
       3814.5700     0.058696110
       3816.0400     0.093513800
       3817.5100      0.18906080
       3818.9800      0.12476410
       3820.4500      0.17105570
       3821.9200      0.23473550
       3823.3900      0.12844640
       3824.8600      0.15276150
       3826.3300      0.32509830
       3827.8000      0.17380440
       3829.2700      0.31240150
       3830.7400      0.13884600
       3832.2100      0.18831880
       3833.6800      0.18993690
       3835.1500      0.29582140
       3836.6200      0.31263280
       3838.0900      0.10481000
       3839.5600      0.25674750
       3841.0300      0.27733930
       3842.5000      0.18526580
       3843.9700      0.17960580
       3845.4400      0.19599230
       3846.9100      0.20567720
       3848.3800      0.15059710
       3849.8500      0.24660820
       3851.3200      0.36705840
       3852.7900      0.40164010
       3854.2600      0.26959420
       3855.7300      0.28074490
       3857.2000      0.14228840
       3858.6700      0.22507180
       3860.1400      0.26915510
       3861.6100      0.33541360
       3863.0800      0.30456540
       3864.5500      0.12999080
       3866.0200      0.26960850
       3867.4900      0.43265040
       3868.9600      0.26658440
       3870.4300      0.40244000
       3871.9000      0.43005410
       3873.3700      0.11662440
       3874.8400      0.37210780
       3876.3100      0.36270320
       3877.7800      0.29869650
       3879.2500      0.39035910
       3880.7200      0.32019830
       3882.1900      0.51112440
       3883.6600      0.48820270
       3885.1300      0.53258970
       3886.6000      0.54770310
       3888.0700      0.34682320
       3889.5400      0.36199810
       3891.0100      0.51195160
       3892.4800      0.89078620
       3893.9500      0.59128560
       3895.4200      0.49960740
       3896.8900      0.81312040
       3898.3600      0.54299940
       3899.8300      0.37989610
       3901.3000      0.43755380
       3902.7700      0.42601190
       3904.2400      0.30785770
       3905.7100      0.83218380
       3907.1800      0.74528850
       3908.6500      0.34470670
       3910.1200      0.65157910
       3911.5900      0.86677960
       3913.0600      0.65049990
       3914.5300      0.48658100
       3916.0000      0.52083540
       3917.4700      0.97965090
       3918.9400      0.84987120
       3920.4100      0.51007490
       3921.8800      0.86211720
       3923.3500      0.97124040
       3924.8200      0.69212810
       3926.2900      0.56988560
       3927.7600      0.48319820
       3929.2300      0.71247830
       3930.7000      0.66229300
       3932.1700      0.52783950
       3933.6400      0.62624020
       3935.1100      0.56793270
       3936.5800      0.51732130
       3938.0500      0.58809080
       3939.5200      0.54483340
       3940.9900      0.49406560
       3942.4600      0.50418080
       3943.9300      0.66766360
       3945.4000      0.64733030
       3946.8700      0.55842660
       3948.3400      0.52750350
       3949.8100      0.72781710
       3951.2800      0.84077050
       3952.7500      0.73632600
       3954.2200      0.70198580
       3955.6900      0.60754780
       3957.1600      0.59912160
       3958.6300      0.59519350
       3960.1000       1.0373190
       3961.5700       1.0448100
       3963.0400      0.90910330
       3964.5100      0.78009660
       3965.9800      0.89367030
       3967.4500      0.81539680
       3968.9200      0.66139760
       3970.3900      0.88490670
       3971.8600       1.2048820
       3973.3300      0.83023110
       3974.8000      0.88177890
       3976.2700      0.66314520
       3977.7400      0.70427110
       3979.2100      0.88359150
       3980.6800      0.92399660
       3982.1500      0.76548470
       3983.6200      0.67731630
       3985.0900      0.67722860
       3986.5600      0.82323480
       3988.0300      0.75404840
       3989.5000      0.79267410
       3990.9700      0.57702810
       3992.4400      0.85272750
       3993.9100       1.0231530
       3995.3800      0.66661760
       3996.8500      0.81308060
       3998.3200      0.74216090
       3999.7900      0.99313690
       4001.2600      0.71641560
       4002.7300      0.61198120
       4004.2000      0.85430790
       4005.6700      0.86383570
       4007.1400      0.56734950
       4008.6100      0.73834360
       4010.0800      0.83271760
       4011.5500      0.61985160
       4013.0200      0.61522300
       4014.4900      0.76898320
       4015.9600      0.99159070
       4017.4300      0.88422200
       4018.9000      0.72154770
       4020.3700      0.71845870
       4021.8400      0.68389930
       4023.3100      0.76869680
       4024.7800      0.75741100
       4026.2500      0.67992240
       4027.7200      0.64662740
       4029.1900      0.85201840
       4030.6600      0.74810800
       4032.1300      0.69770740
       4033.6000      0.79003890
       4035.0700      0.74140990
       4036.5400      0.72203490
       4038.0100      0.68626220
       4039.4800      0.63653530
       4040.9500      0.56944780
       4042.4200      0.92083080
       4043.8900      0.99093040
       4045.3600      0.82627550
       4046.8300      0.77679750
       4048.3000      0.61329940
       4049.7700      0.61795000
       4051.2400      0.74047120
       4052.7100      0.65557740
       4054.1800      0.69990750
       4055.6500      0.69486330
       4057.1200      0.77749130
       4058.5900      0.72361870
       4060.0600      0.70966180
       4061.5300      0.79751010
       4063.0000      0.86350200
       4064.4700      0.67784470
       4065.9400      0.76536240
       4067.4100      0.72345450
       4068.8800      0.53537110
       4070.3500      0.73137780
       4071.8200      0.78994680
       4073.2900      0.65967130
       4074.7600      0.60522130
       4076.2300      0.69430200
       4077.7000      0.63148250
       4079.1700      0.62637260
       4080.6400      0.76348470
       4082.1100      0.68985290
       4083.5800      0.59080770
       4085.0500      0.53980990
       4086.5200      0.68045950
       4087.9900      0.72599860
       4089.4600      0.73155400
       4090.9300      0.70892970
       4092.4000      0.54219650
       4093.8700      0.66788490
       4095.3400      0.58734740
       4096.8100      0.77431190
       4098.2800      0.60644870
       4099.7500      0.68190690
       4101.2200      0.57076870
       4102.6900      0.53924290
       4104.1600      0.57932920
       4105.6300      0.80409650
       4107.1000      0.64489400
       4108.5700      0.64806730
       4110.0400      0.57962400
       4111.5100      0.63567720
       4112.9800      0.48247760
       4114.4500      0.35976400
       4115.9200      0.54842240
       4117.3900      0.58163050
       4118.8600      0.45922770
       4120.3300      0.50440140
       4121.8000      0.65758940
       4123.2700      0.53298190
       4124.7399      0.56444510
       4126.2100      0.61785730
       4127.6800      0.48643230
       4129.1500      0.55998380
       4130.6200      0.48788400
       4132.0900      0.50743780
       4133.5600      0.70615040
       4135.0300      0.57535960
       4136.5000      0.47380850
       4137.9700      0.40767140
       4139.4400      0.41875600
       4140.9100      0.41260190
       4142.3800      0.50304680
       4143.8500      0.45231800
       4145.3200      0.41195600
       4146.7900      0.62721460
       4148.2600      0.52570340
       4149.7300      0.42254560
       4151.2000      0.36145710
       4152.6700      0.35074540
       4154.1400      0.40622810
       4155.6100      0.30959170
       4157.0800      0.36618500
       4158.5500      0.40977940
       4160.0200      0.35583080
       4161.4900      0.39866140
       4162.9600      0.54550430
       4164.4300      0.48482880
       4165.9000      0.48218950
       4167.3700      0.46488650
       4168.8400      0.44654740
       4170.3100      0.41210350
       4171.7800      0.37775410
       4173.2500      0.42452680
       4174.7200      0.35902910
       4176.1900      0.34449490
       4177.6600      0.40314310
       4179.1300      0.41698690
       4180.6000      0.33350650
       4182.0700      0.35896520
       4183.5400      0.40015770
       4185.0100      0.35033120
       4186.4800      0.41127890
       4187.9500      0.37647360
       4189.4200      0.39219170
       4190.8900      0.43520320
       4192.3600      0.39713280
       4193.8300      0.40527370
       4195.3000      0.33320740
       4196.7700      0.35678420
       4198.2400      0.41991420
       4199.7100      0.39156600
       4201.1800      0.43931490
       4202.6500      0.40650330
       4204.1200      0.30671770
       4205.5900      0.39684000
       4207.0600      0.44211500
       4208.5300      0.42556510
       4210.0000      0.41736910
       4211.4700      0.46786050
       4212.9400      0.44683150
       4214.4100      0.40454730
       4215.8800      0.42588410
       4217.3500      0.44497710
       4218.8200      0.39427520
       4220.2900      0.36701940
       4221.7600      0.41821070
       4223.2300      0.44471410
       4224.7000      0.45811970
       4226.1700      0.46367380
       4227.6400      0.43431930
       4229.1100      0.44290910
       4230.5800      0.44170090
       4232.0500      0.43147570
       4233.5200      0.39827920
       4234.9900      0.43623010
       4236.4600      0.42600180
       4237.9300      0.42946320
       4239.4000      0.41543660
       4240.8700      0.40118320
       4242.3400      0.41093510
       4243.8100      0.42143100
       4245.2800      0.46498800
       4246.7500      0.47551630
       4248.2200      0.51152430
       4249.6900      0.46722270
       4251.1600      0.42803070
       4252.6300      0.47302730
       4254.1000      0.53141480
       4255.5700      0.44376160
       4257.0400      0.45786960
       4258.5100      0.47635200
       4259.9800      0.46461420
       4261.4500      0.47154720
       4262.9200      0.45445560
       4264.3900      0.41521050
       4265.8600      0.41558590
       4267.3300      0.44126610
       4268.8000      0.43843380
       4270.2700      0.46399270
       4271.7400      0.43583050
       4273.2100      0.39364870
       4274.6800      0.40217820
       4276.1500      0.40342200
       4277.6200      0.48815600
       4279.0900      0.48618120
       4280.5600      0.51133040
       4282.0300      0.49218510
       4283.5000      0.46440650
       4284.9700      0.45173630
       4286.4400      0.42722700
       4287.9100      0.46316380
       4289.3800      0.47283720
       4290.8500      0.45621640
       4292.3200      0.47843930
       4293.7900      0.49851910
       4295.2600      0.49345640
       4296.7300      0.45117900
       4298.2000      0.47109530
       4299.6700      0.49899150
       4301.1400      0.47904050
       4302.6100      0.50347140
       4304.0800      0.45324840
       4305.5500      0.49038130
       4307.0200      0.50830200
       4308.4900      0.45814800
       4309.9600      0.42176570
       4311.4300      0.46331810
       4312.9000      0.47102180
       4314.3700      0.44259470
       4315.8400      0.44696790
       4317.3100      0.42167710
       4318.7800      0.42100090
       4320.2500      0.45817700
       4321.7200      0.47503760
       4323.1900      0.43046920
       4324.6600      0.40558790
       4326.1300      0.47010900
       4327.6000      0.45590250
       4329.0700      0.46542590
       4330.5400      0.50804250
       4332.0100      0.49716450
       4333.4800      0.46867200
       4334.9500      0.48269410
       4336.4200      0.50817330
       4337.8900      0.48700940
       4339.3600      0.44618540
       4340.8300      0.46840180
       4342.3000      0.48154440
       4343.7700      0.43772360
       4345.2400      0.44272600
       4346.7100      0.47093160
       4348.1800      0.46539200
       4349.6500      0.42123730
       4351.1200      0.40733970
       4352.5900      0.44866460
       4354.0600      0.44513440
       4355.5300      0.44611690
       4357.0000      0.50503130
       4358.4700      0.53390720
       4359.9400      0.51332770
       4361.4100      0.52589640
       4362.8800      0.54647640
       4364.3500      0.53706720
       4365.8200      0.49793270
       4367.2900      0.45386870
       4368.7600      0.47124950
       4370.2300      0.46209960
       4371.7000      0.52616700
       4373.1700      0.49662530
       4374.6400      0.47978170
       4376.1100      0.48183260
       4377.5800      0.50099620
       4379.0500      0.48251830
       4380.5200      0.46792890
       4381.9900      0.51401700
       4383.4600      0.54899480
       4384.9300      0.53480230
       4386.4000      0.50727410
       4387.8700      0.48781140
       4389.3400      0.47403400
       4390.8100      0.47514640
       4392.2800      0.45523660
       4393.7500      0.49248410
       4395.2200      0.49745360
       4396.6900      0.49980160
       4398.1600      0.44222610
       4399.6300      0.44121600
       4401.1000      0.44986490
       4402.5700      0.43614950
       4404.0400      0.43794830
       4405.5100      0.41794140
       4406.9800      0.46554300
       4408.4500      0.45695830
       4409.9200      0.43791290
       4411.3900      0.46410600
       4412.8600      0.44443500
       4414.3300      0.46458770
       4415.8000      0.44692980
       4417.2700      0.39374570
       4418.7400      0.43313620
       4420.2100      0.45194360
       4421.6800      0.43390000
       4423.1500      0.43495030
       4424.6200      0.44601740
       4426.0900      0.42702030
       4427.5600      0.42142800
       4429.0300      0.42377300
       4430.5000      0.41014060
       4431.9700      0.39622460
       4433.4400      0.38468750
       4434.9100      0.42155110
       4436.3800      0.46251050
       4437.8499      0.48429020
       4439.3200      0.51385840
       4440.7900      0.51613740
       4442.2600      0.50734640
       4443.7300      0.49431610
       4445.2000      0.45689840
       4446.6700      0.45521490
       4448.1400      0.46512480
       4449.6100      0.43389490
       4451.0800      0.43608690
       4452.5500      0.46954460
       4454.0200      0.45324810
       4455.4900      0.47990770
       4456.9600      0.51071450
       4458.4300      0.50022980
       4459.9000      0.46989330
       4461.3700      0.51554470
       4462.8400      0.53407660
       4464.3100      0.52670930
       4465.7800      0.50127150
       4467.2500      0.49096110
       4468.7200      0.48653650
       4470.1900      0.49035440
       4471.6600      0.51457020
       4473.1300      0.51587370
       4474.6000      0.51559410
       4476.0700      0.51104710
       4477.5400      0.52116610
       4479.0100      0.53053240
       4480.4800      0.52524700
       4481.9500      0.55318790
       4483.4200      0.57013390
       4484.8900      0.56141630
       4486.3600      0.56691120
       4487.8300      0.61745040
       4489.3000      0.59310780
       4490.7700      0.56378000
       4492.2400      0.61102800
       4493.7100      0.61293870
       4495.1800      0.60533710
       4496.6500      0.60567480
       4498.1200      0.59422850
       4499.5900      0.60676060
       4501.0600      0.64168950
       4502.5300      0.65731940
       4504.0000      0.66383020
       4505.4700      0.68806310
       4506.9400      0.69603010
       4508.4100      0.70020330
       4509.8800      0.68513180
       4511.3500      0.66211000
       4512.8200      0.69143990
       4514.2900      0.77039060
       4515.7600      0.76988790
       4517.2300      0.76464680
       4518.7000      0.82705350
       4520.1700      0.81867360
       4521.6400      0.75387910
       4523.1100      0.79185800
       4524.5800      0.81322910
       4526.0500      0.83710740
       4527.5200      0.82771180
       4528.9900      0.78186590
       4530.4600      0.80824140
       4531.9300      0.87753120
       4533.4000      0.87223390
       4534.8700      0.83972950
       4536.3400      0.88982250
       4537.8100      0.91547460
       4539.2800      0.91931750
       4540.7500      0.89056590
       4542.2200      0.87862240
       4543.6900      0.89270970
       4545.1600      0.92726530
       4546.6300      0.92133170
       4548.1000      0.90317220
       4549.5700      0.93216040
       4551.0400      0.93076060
       4552.5100      0.92421690
       4553.9800      0.94301800
       4555.4500      0.97948080
       4556.9200      0.95919110
       4558.3900      0.97427220
       4559.8600       1.0280070
       4561.3300       1.0576700
       4562.8000       1.0681480
       4564.2700       1.0810780
       4565.7400       1.1151170
       4567.2100       1.1113330
       4568.6800       1.0702530
       4570.1500       1.0643010
       4571.6200       1.0828830
       4573.0900       1.0581010
       4574.5600       1.0673550
       4576.0300       1.1092540
       4577.5000       1.0647670
       4578.9700       1.0680830
       4580.4400       1.1235210
       4581.9100       1.1754880
       4583.3800       1.1501400
       4584.8500       1.1534710
       4586.3200       1.1992820
       4587.7900       1.1936350
       4589.2600       1.1823320
       4590.7300       1.1924960
       4592.2000       1.2139690
       4593.6700       1.2154530
       4595.1400       1.2167050
       4596.6100       1.2682010
       4598.0800       1.2383470
       4599.5500       1.2381400
       4601.0200       1.2798410
       4602.4900       1.2803910
       4603.9600       1.2349360
       4605.4300       1.2125220
       4606.9000       1.2645170
       4608.3700       1.2540750
       4609.8400       1.2266160
       4611.3100       1.2363270
       4612.7800       1.2187790
       4614.2500       1.2090850
       4615.7200       1.1790700
       4617.1900       1.1641610
       4618.6600       1.1584360
       4620.1300       1.1827920
       4621.6000       1.2435710
       4623.0700       1.2417990
       4624.5400       1.2016600
       4626.0100       1.2714450
       4627.4800       1.2604940
       4628.9500       1.2408020
       4630.4200       1.2837060
       4631.8900       1.2836690
       4633.3600       1.2915600
       4634.8300       1.2933010
       4636.3000       1.2533500
       4637.7700       1.2960550
       4639.2400       1.3284980
       4640.7100       1.2755720
       4642.1800       1.2317610
       4643.6500       1.2718510
       4645.1200       1.3176600
       4646.5900       1.3147690
       4648.0600       1.2782660
       4649.5300       1.2686850
       4651.0000       1.2263010
       4652.4700       1.2317620
       4653.9400       1.2282420
       4655.4100       1.2342370
       4656.8800       1.2750350
       4658.3500       1.2831980
       4659.8200       1.2317520
       4661.2900       1.1995400
       4662.7600       1.2195860
       4664.2300       1.2680930
       4665.7000       1.2311470
       4667.1700       1.1368870
       4668.6400       1.1192100
       4670.1100       1.1268390
       4671.5800       1.1505500
       4673.0500       1.1346640
       4674.5200       1.1324740
       4675.9900       1.1778040
       4677.4600       1.1584860
       4678.9300       1.1070000
       4680.4000       1.0558870
       4681.8700       1.0864190
       4683.3400       1.1244840
       4684.8100       1.0581770
       4686.2800       1.0334230
       4687.7500       1.0648640
       4689.2200       1.0418020
       4690.6900       1.0427690
       4692.1600       1.0581150
       4693.6300       1.0410280
       4695.1000       1.0213810
       4696.5700       1.0207860
       4698.0400       1.0131580
       4699.5100       1.0350250
       4700.9800      0.99821960
       4702.4500      0.95022260
       4703.9200       1.0017660
       4705.3900       1.0043620
       4706.8600      0.94931790
       4708.3300      0.91405040
       4709.8000      0.93999110
       4711.2700      0.93155990
       4712.7400      0.88196990
       4714.2100      0.85448080
       4715.6800      0.88750700
       4717.1500      0.88034590
       4718.6200      0.85884340
       4720.0900      0.86031220
       4721.5600      0.86344320
       4723.0300      0.86963380
       4724.5000      0.84939040
       4725.9700      0.84729580
       4727.4400      0.84322980
       4728.9100      0.83493070
       4730.3800      0.82324300
       4731.8500      0.82196490
       4733.3200      0.83968150
       4734.7900      0.84650020
       4736.2600      0.83579990
       4737.7300      0.87951800
       4739.2000      0.88253930
       4740.6700      0.83224650
       4742.1400      0.84703320
       4743.6100      0.87546770
       4745.0800      0.85461660
       4746.5500      0.80990390
       4748.0200      0.81410550
       4749.4900      0.83711370
       4750.9599      0.82421800
       4752.4300      0.81690190
       4753.9000      0.80155410
       4755.3700      0.81495930
       4756.8400      0.83189230
       4758.3100      0.82353410
       4759.7800      0.80075370
       4761.2500      0.77511440
       4762.7200      0.76587240
       4764.1900      0.75608250
       4765.6600      0.81362370
       4767.1300      0.82264830
       4768.6000      0.76686190
       4770.0700      0.74503840
       4771.5400      0.74004170
       4773.0100      0.75541520
       4774.4800      0.78158610
       4775.9500      0.76969800
       4777.4200      0.72355970
       4778.8900      0.70395390
       4780.3600      0.70141340
       4781.8300      0.69378080
       4783.3000      0.71694270
       4784.7700      0.76939620
       4786.2400      0.75936850
       4787.7100      0.69065590
       4789.1800      0.71106890
       4790.6500      0.71329340
       4792.1200      0.66826740
       4793.5900      0.65383880
       4795.0600      0.65483490
       4796.5300      0.67458810
       4798.0000      0.68206940
       4799.4700      0.69392340
       4800.9400      0.68524830
       4802.4100      0.66593280
       4803.8800      0.64417220
       4805.3500      0.62179920
       4806.8200      0.65417020
       4808.2900      0.65779670
       4809.7600      0.67223540
       4811.2300      0.67373160
       4812.7000      0.63889240
       4814.1700      0.64061440
       4815.6400      0.66166810
       4817.1100      0.67761580
       4818.5800      0.68911130
       4820.0500      0.68217250
       4821.5200      0.69355100
       4822.9900      0.70114410
       4824.4600      0.70032690
       4825.9300      0.68687010
       4827.4000      0.67992890
       4828.8700      0.70163100
       4830.3400      0.70476070
       4831.8100      0.69888480
       4833.2800      0.69585980
       4834.7500      0.70680430
       4836.2200      0.73128250
       4837.6900      0.72876660
       4839.1600      0.71450230
       4840.6300      0.72865420
       4842.1000      0.73092930
       4843.5700      0.72423510
       4845.0400      0.72190530
       4846.5100      0.72498300
       4847.9800      0.77472930
       4849.4500      0.77611860
       4850.9200      0.72003440
       4852.3900      0.69977670
       4853.8600      0.70613520
       4855.3300      0.72054750
       4856.8000      0.77399010
       4858.2700      0.77707480
       4859.7400      0.74333650
       4861.2100      0.74610850
       4862.6800      0.71308800
       4864.1500      0.66571450
       4865.6200      0.71105260
       4867.0900      0.74452850
       4868.5600      0.71624610
       4870.0300      0.70936510
       4871.5000      0.70581330
       4872.9700      0.69713150
       4874.4400      0.69066100
       4875.9100      0.69022700
       4877.3800      0.66425990
       4878.8500      0.70501150
       4880.3200      0.78451270
       4881.7900      0.78888700
       4883.2600      0.77574270
       4884.7300      0.75987790
       4886.2000      0.73842340
       4887.6700      0.70803830
       4889.1400      0.68302550
       4890.6100      0.71051160
       4892.0800      0.75444470
       4893.5500      0.73689250
       4895.0200      0.71061530
       4896.4900      0.72537050
       4897.9600      0.73436330
       4899.4300      0.72625860
       4900.9000      0.70128810
       4902.3700      0.72472920
       4903.8400      0.75013300
       4905.3100      0.73835890
       4906.7800      0.72075990
       4908.2500      0.73503450
       4909.7200      0.76639710
       4911.1900      0.75146860
       4912.6600      0.76708540
       4914.1300      0.78565860
       4915.6000      0.76245740
       4917.0700      0.74304970
       4918.5400      0.75710900
       4920.0100      0.76837100
       4921.4800      0.79434240
       4922.9500      0.80094060
       4924.4200      0.77881690
       4925.8900      0.79878560
       4927.3600      0.82971600
       4928.8300      0.81930940
       4930.3000      0.78294160
       4931.7700      0.77107450
       4933.2400      0.78399810
       4934.7100      0.81429900
       4936.1800      0.86159080
       4937.6500      0.88485850
       4939.1200      0.84289590
       4940.5900      0.85597480
       4942.0600      0.92494890
       4943.5300      0.91914790
       4945.0000      0.87592770
       4946.4700      0.88149930
       4947.9400      0.92159140
       4949.4100      0.96110490
       4950.8800      0.99280190
       4952.3500      0.99924740
       4953.8200      0.95270230
       4955.2900      0.94427470
       4956.7600      0.98253300
       4958.2300       1.0159750
       4959.7000       1.0357410
       4961.1700       1.0321320
       4962.6400       1.0233910
       4964.1100       1.0106970
       4965.5800       1.0147560
       4967.0500       1.0630680
       4968.5200       1.0856480
       4969.9900       1.0575290
       4971.4600       1.0650290
       4972.9300       1.0623370
       4974.4000       1.0365370
       4975.8700       1.0654240
       4977.3400       1.1115390
       4978.8100       1.0992530
       4980.2800       1.0962500
       4981.7500       1.1254290
       4983.2200       1.1278370
       4984.6900       1.1106180
       4986.1600       1.0737440
       4987.6300       1.0279970
       4989.1000       1.0437540
       4990.5700       1.0569040
       4992.0400       1.0418210
       4993.5100       1.0673640
       4994.9800       1.0302070
       4996.4500       1.0080210
       4997.9200       1.0108860
       4999.3900      0.96842740
       5000.8600      0.96411110
       5002.3300       1.0028540
       5003.8000      0.96845530
       5005.2700      0.89875070
       5006.7400      0.89344080
       5008.2100      0.91998120
       5009.6800      0.90443520
       5011.1500      0.86968950
       5012.6200      0.87085440
       5014.0900      0.87299980
       5015.5600      0.84101880
       5017.0300      0.80006830
       5018.5000      0.77393070
       5019.9700      0.76125530
       5021.4400      0.76863590
       5022.9100      0.75146760
       5024.3800      0.74065550
       5025.8500      0.74423670
       5027.3200      0.78115050
       5028.7900      0.78628840
       5030.2600      0.78421260
       5031.7300      0.83989830
       5033.2000      0.78834550
       5034.6700      0.69560620
       5036.1400      0.68003740
       5037.6100      0.67995500
       5039.0800      0.66308920
       5040.5500      0.67147750
       5042.0200      0.68085120
       5043.4900      0.65745720
       5044.9600      0.63045960
       5046.4300      0.63674690
       5047.9000      0.63712300
       5049.3700      0.63072970
       5050.8400      0.63444320
       5052.3100      0.61199120
       5053.7800      0.60468970
       5055.2500      0.59807680
       5056.7200      0.62553600
       5058.1900      0.64844850
       5059.6600      0.60130630
       5061.1300      0.60400500
       5062.6000      0.61887500
       5064.0699      0.59297690
       5065.5400      0.61549320
       5067.0100      0.65449170
       5068.4800      0.59983390
       5069.9500      0.55270210
       5071.4200      0.59850080
       5072.8900      0.62900200
       5074.3600      0.60867770
       5075.8300      0.57430170
       5077.3000      0.62056270
       5078.7700      0.64079310
       5080.2400      0.60229750
       5081.7100      0.58299380
       5083.1800      0.61902830
       5084.6500      0.63242750
       5086.1200      0.61416460
       5087.5900      0.63891710
       5089.0600      0.61115430
       5090.5300      0.61897100
       5092.0000      0.62984590
       5093.4700      0.60188850
       5094.9400      0.60261060
       5096.4100      0.65043590
       5097.8800      0.62917240
       5099.3500      0.63615320
       5100.8200      0.66382930
       5102.2900      0.65955870
       5103.7600      0.63542020
       5105.2300      0.63356350
       5106.7000      0.68134520
       5108.1700      0.69960030
       5109.6400      0.68744810
       5111.1100      0.70239160
       5112.5800      0.70850720
       5114.0500      0.68943830
       5115.5200      0.68432020
       5116.9900      0.69983150
       5118.4600      0.70522030
       5119.9300      0.72892550
       5121.4000      0.76062520
       5122.8700      0.76501860
       5124.3400      0.75834330
       5125.8100      0.76531620
       5127.2800      0.78039950
       5128.7500      0.77015460
       5130.2200      0.79324030
       5131.6900      0.80697940
       5133.1600      0.79866500
       5134.6300      0.76580820
       5136.1000      0.75498840
       5137.5700      0.77805650
       5139.0400      0.80535900
       5140.5100      0.81957970
       5141.9800      0.82541280
       5143.4500      0.81721950
       5144.9200      0.83410330
       5146.3900      0.81467830
       5147.8600      0.81819260
       5149.3300      0.85408390
       5150.8000      0.84982220
       5152.2700      0.85591690
       5153.7400      0.87393700
       5155.2100      0.83776520
       5156.6800      0.81661650
       5158.1500      0.85364320
       5159.6200      0.85967860
       5161.0900      0.89116160
       5162.5600      0.87454300
       5164.0300      0.86565920
       5165.5000      0.87578830
       5166.9700      0.85410610
       5168.4400      0.86114470
       5169.9100      0.84783990
       5171.3800      0.83063820
       5172.8500      0.83123200
       5174.3200      0.86275910
       5175.7900      0.87314820
       5177.2600      0.86554880
       5178.7300      0.87349740
       5180.2000      0.92264520
       5181.6700      0.89432050
       5183.1400      0.87277390
       5184.6100      0.90377890
       5186.0800      0.89330540
       5187.5500      0.91768900
       5189.0200      0.92086480
       5190.4900      0.87697150
       5191.9600      0.90296380
       5193.4300      0.90231570
       5194.9000      0.91054340
       5196.3700      0.89023240
       5197.8400      0.88081510
       5199.3100      0.92272500
       5200.7800      0.93467460
       5202.2500      0.92227930
       5203.7200      0.93603660
       5205.1900      0.92191370
       5206.6600      0.90434560
       5208.1300      0.95017600
       5209.6000      0.91845260
       5211.0700      0.85778560
       5212.5400      0.91901980
       5214.0100      0.95498440
       5215.4800      0.92705030
       5216.9500      0.92256900
       5218.4200      0.90474650
       5219.8900      0.92810820
       5221.3600      0.94122460
       5222.8300      0.93703720
       5224.3000      0.93173060
       5225.7700      0.98313370
       5227.2400       1.0204870
       5228.7100      0.99010900
       5230.1800      0.97965370
       5231.6500       1.0401250
       5233.1200       1.0478450
       5234.5900       1.0588300
       5236.0600       1.0603050
       5237.5300       1.0648260
       5239.0000       1.0741510
       5240.4700       1.0252610
       5241.9400       1.0558620
       5243.4100       1.0937220
       5244.8800       1.0928630
       5246.3500       1.0768720
       5247.8200       1.0471110
       5249.2900       1.0382520
       5250.7600       1.0115460
       5252.2300       1.0151380
       5253.7000       1.0616700
       5255.1700       1.1105920
       5256.6400       1.1295920
       5258.1100       1.1427800
       5259.5800       1.1058930
       5261.0500       1.0940540
       5262.5200       1.0907370
       5263.9900       1.0876640
       5265.4600       1.1026370
       5266.9300       1.0795730
       5268.4000       1.1033080
       5269.8700       1.1249390
       5271.3400       1.1223430
       5272.8100       1.1469780
       5274.2800       1.1092310
       5275.7500       1.1172390
       5277.2200       1.1755630
       5278.6900       1.1747900
       5280.1600       1.1835530
       5281.6300       1.1808560
       5283.1000       1.2009060
       5284.5700       1.1921660
       5286.0400       1.1970830
       5287.5100       1.2323280
       5288.9800       1.2245700
       5290.4500       1.1978350
       5291.9200       1.1964280
       5293.3900       1.2352110
       5294.8600       1.2387990
       5296.3300       1.2115340
       5297.8000       1.2361770
       5299.2700       1.2513010
       5300.7400       1.2625600
       5302.2100       1.2435940
       5303.6800       1.1983270
       5305.1500       1.2298360
       5306.6200       1.2625290
       5308.0900       1.2694390
       5309.5600       1.2422950
       5311.0300       1.2214900
       5312.5000       1.2445220
       5313.9700       1.2704660
       5315.4400       1.2555820
       5316.9100       1.2430710
       5318.3800       1.2832490
       5319.8500       1.2854750
       5321.3200       1.2988820
       5322.7900       1.2877730
       5324.2600       1.2630860
       5325.7300       1.2998400
       5327.2000       1.3203400
       5328.6700       1.2940570
       5330.1400       1.3103300
       5331.6100       1.3229650
       5333.0800       1.3191290
       5334.5500       1.3556540
       5336.0200       1.3615350
       5337.4900       1.3289850
       5338.9600       1.3426590
       5340.4300       1.3510790
       5341.9000       1.3516530
       5343.3700       1.3537510
       5344.8400       1.3242770
       5346.3100       1.3469140
       5347.7800       1.3580920
       5349.2500       1.3061690
       5350.7200       1.3333820
       5352.1900       1.3965960
       5353.6600       1.3916560
       5355.1300       1.3608910
       5356.6000       1.3798910
       5358.0700       1.4337660
       5359.5400       1.4560750
       5361.0100       1.4218980
       5362.4800       1.3890760
       5363.9500       1.3764140
       5365.4200       1.3602850
       5366.8900       1.3846980
       5368.3600       1.4090920
       5369.8300       1.4185880
       5371.3000       1.4032520
       5372.7700       1.3699990
       5374.2400       1.3898780
       5375.7100       1.3867810
       5377.1799       1.3876450
       5378.6500       1.3813150
       5380.1200       1.3623450
       5381.5900       1.3712490
       5383.0600       1.3634730
       5384.5300       1.3334950
       5386.0000       1.3158990
       5387.4700       1.3634230
       5388.9400       1.3789230
       5390.4100       1.3564690
       5391.8800       1.3789760
       5393.3500       1.3993840
       5394.8200       1.3340390
       5396.2900       1.3362420
       5397.7600       1.3385750
       5399.2300       1.2636780
       5400.7000       1.2656260
       5402.1700       1.2941830
       5403.6400       1.3187970
       5405.1100       1.3137000
       5406.5800       1.3048660
       5408.0500       1.3113020
       5409.5200       1.3081620
       5410.9900       1.2697100
       5412.4600       1.2492720
       5413.9300       1.2596980
       5415.4000       1.2605980
       5416.8700       1.2490990
       5418.3400       1.2252680
       5419.8100       1.1981360
       5421.2800       1.2034560
       5422.7500       1.2244260
       5424.2200       1.2177630
       5425.6900       1.2017210
       5427.1600       1.2155230
       5428.6300       1.2010320
       5430.1000       1.1296170
       5431.5700       1.1302300
       5433.0400       1.1515520
       5434.5100       1.1704150
       5435.9800       1.1646110
       5437.4500       1.2019100
       5438.9200       1.1794820
       5440.3900       1.1968940
       5441.8600       1.1566160
       5443.3300       1.1535290
       5444.8000       1.1446700
       5446.2700       1.0941960
       5447.7400       1.0684880
       5449.2100       1.1097050
       5450.6800       1.1245760
       5452.1500       1.1165750
       5453.6200       1.1075530
       5455.0900       1.0958620
       5456.5600       1.1398910
       5458.0300       1.1337590
       5459.5000       1.1237620
       5460.9700       1.1785030
       5462.4400       1.1475010
       5463.9100       1.1473480
       5465.3800       1.2034930
       5466.8500       1.2138710
       5468.3200       1.1653200
       5469.7900       1.2312720
       5471.2600       1.2374290
       5472.7300       1.2686780
       5474.2000       1.2836310
       5475.6700       1.3033510
       5477.1400       1.3298610
       5478.6100       1.3095580
       5480.0800       1.3357030
       5481.5500       1.3439510
       5483.0200       1.3936240
       5484.4900       1.4148080
       5485.9600       1.4185770
       5487.4300       1.4685830
       5488.9000       1.5604310
       5490.3700       1.5538010
       5491.8400       1.5051070
       5493.3100       1.5156050
       5494.7800       1.5516060
       5496.2500       1.5805470
       5497.7200       1.6437240
       5499.1900       1.6774640
       5500.6600       1.6905470
       5502.1300       1.7134280
       5503.6000       1.7594590
       5505.0700       1.7298790
       5506.5400       1.7385100
       5508.0100       1.7890270
       5509.4800       1.7520620
       5510.9500       1.7335890
       5512.4200       1.7846790
       5513.8900       1.8538620
       5515.3600       1.8937600
       5516.8300       1.9243070
       5518.3000       1.8537280
       5519.7700       1.8496620
       5521.2400       1.9420170
       5522.7100       1.8754270
       5524.1800       1.8821170
       5525.6500       1.9082170
       5527.1200       1.9307090
       5528.5900       1.8816690
       5530.0600       1.9154020
       5531.5300       1.9095630
       5533.0000       1.9337080
       5534.4700       1.9454500
       5535.9400       1.9109190
       5537.4100       1.8263390
       5538.8800       1.8001080
       5540.3500       1.8497840
       5541.8200       1.8627680
       5543.2900       1.8069810
       5544.7600       1.8211480
       5546.2300       1.8190930
       5547.7000       1.7696500
       5549.1700       1.7223950
       5550.6400       1.7390620
       5552.1100       1.7349810
       5553.5800       1.7270640
       5555.0500       1.6915130
       5556.5200       1.6418950
       5557.9900       1.6420670
       5559.4600       1.5961220
       5560.9300       1.6142760
       5562.4000       1.6241550
       5563.8700       1.5636190
       5565.3400       1.5289870
       5566.8100       1.5121820
       5568.2800       1.4857310
       5569.7500       1.4719300
       5571.2200       1.4188990
       5572.6900       1.3833380
       5574.1600       1.4534540
       5575.6300       1.4159210
       5577.1000       1.3175620
       5578.5700       1.2621560
       5580.0400       1.3533150
       5581.5100       1.2972390
       5582.9800       1.3015540
       5584.4500       1.2729070
       5585.9200       1.2397810
       5587.3900       1.2307220
       5588.8600       1.2254320
       5590.3300       1.2200610
       5591.8000       1.1660860
       5593.2700       1.1735280
       5594.7400       1.2229150
       5596.2100       1.2025110
       5597.6800       1.1808430
       5599.1500       1.1811180
       5600.6200       1.1959580
       5602.0900       1.2062410
       5603.5600       1.2214120
       5605.0300       1.2004200
       5606.5000       1.2306980
       5607.9700       1.1975710
       5609.4400       1.2385660
       5610.9100       1.2391430
       5612.3800       1.2448120
       5613.8500       1.2542060
       5615.3200       1.2424420
       5616.7900       1.2803100
       5618.2600       1.2854220
       5619.7300       1.2862150
       5621.2000       1.3216780
       5622.6700       1.3456800
       5624.1400       1.3696190
       5625.6100       1.3833110
       5627.0800       1.3758470
       5628.5500       1.3676010
       5630.0200       1.3805610
       5631.4900       1.4319870
       5632.9600       1.4408320
       5634.4300       1.4373090
       5635.9000       1.4536290
       5637.3700       1.4302870
       5638.8400       1.4611330
       5640.3100       1.4896040
       5641.7800       1.4465780
       5643.2500       1.4211210
       5644.7200       1.4325690
       5646.1900       1.4154130
       5647.6600       1.4541570
       5649.1300       1.4574300
       5650.6000       1.4315380
       5652.0700       1.4505490
       5653.5400       1.4793320
       5655.0100       1.4451830
       5656.4800       1.4144780
       5657.9500       1.4610840
       5659.4200       1.4493650
       5660.8900       1.4148660
       5662.3600       1.3877380
       5663.8300       1.3030250
       5665.3000       1.2610470
       5666.7700       1.2373820
       5668.2400       1.2004540
       5669.7100       1.1929570
       5671.1800       1.1344220
       5672.6500       1.1082990
       5674.1200       1.0964680
       5675.5900       1.0505130
       5677.0600       1.0241050
       5678.5300       1.0012280
       5680.0000      0.98236990
       5681.4700      0.99250430
       5682.9400       1.0011200
       5684.4100      0.99799520
       5685.8800      0.96427610
       5687.3500      0.94773090
       5688.8200      0.97647330
       5690.2899      0.95117000
       5691.7600      0.94804240
       5693.2300      0.92023400
       5694.7000      0.84945430
       5696.1700      0.83175660
       5697.6400      0.86858940
       5699.1100      0.88203420
       5700.5800      0.85893020
       5702.0500      0.85021790
       5703.5200      0.79710110
       5704.9900      0.76666050
       5706.4600      0.81905970
       5707.9300      0.81008500
       5709.4000      0.79583940
       5710.8700      0.77667090
       5712.3400      0.76161620
       5713.8100      0.78063270
       5715.2800      0.76757960
       5716.7500      0.75719060
       5718.2200      0.75275750
       5719.6900      0.77581070
       5721.1600      0.73106150
       5722.6300      0.71866800
       5724.1000      0.76812480
       5725.5700      0.74690550
       5727.0400      0.75408800
       5728.5100      0.77716080
       5729.9800      0.78846870
       5731.4500      0.78143140
       5732.9200      0.76109640
       5734.3900      0.74481770
       5735.8600      0.70040600
       5737.3300      0.77932040
       5738.8000      0.78653750
       5740.2700      0.76342110
       5741.7400      0.78144620
       5743.2100      0.74560650
       5744.6800      0.75020120
       5746.1500      0.76694530
       5747.6200      0.73612230
       5749.0900      0.71111040
       5750.5600      0.71154310
       5752.0300      0.73999490
       5753.5000      0.74323730
       5754.9700      0.72392320
       5756.4400      0.71378420
       5757.9100      0.73698520
       5759.3800      0.70262550
       5760.8500      0.68494600
       5762.3200      0.71270940
       5763.7900      0.70453550
       5765.2600      0.68115580
       5766.7300      0.66795970
       5768.2000      0.67131640
       5769.6700      0.67526290
       5771.1400      0.67119300
       5772.6100      0.66234690
       5774.0800      0.66960710
       5775.5500      0.67557620
       5777.0200      0.69331850
       5778.4900      0.67502140
       5779.9600      0.63263350
       5781.4300      0.66673050
       5782.9000      0.69714900
       5784.3700      0.68871990
       5785.8400      0.68275790
       5787.3100      0.69788840
       5788.7800      0.71621520
       5790.2500      0.71549690
       5791.7200      0.70063910
       5793.1900      0.71767570
       5794.6600      0.65765610
       5796.1300      0.68032530
       5797.6000      0.67892740
       5799.0700      0.68252960
       5800.5400      0.68804260
       5802.0100      0.71946480
       5803.4800      0.69000050
       5804.9500      0.72094610
       5806.4200      0.67828600
       5807.8900      0.68463890
       5809.3600      0.66495740
       5810.8300      0.73139270
       5812.3000      0.76047990
       5813.7700      0.77591820
       5815.2400      0.75454680
       5816.7100      0.82154790
       5818.1800      0.83591870
       5819.6500      0.81760050
       5821.1200      0.84396150
       5822.5900      0.85812620
       5824.0600      0.91691070
       5825.5300      0.91739550
       5827.0000      0.89540620
       5828.4700      0.95575680
       5829.9400      0.96718340
       5831.4100       1.0063590
       5832.8800       1.0299230
       5834.3500       1.0681580
       5835.8200       1.0351340
       5837.2900       1.0808330
       5838.7600       1.1040730
       5840.2300       1.0941880
       5841.7000       1.0922440
       5843.1700       1.1152850
       5844.6400       1.1108340
       5846.1100       1.1419170
       5847.5800       1.1726180
       5849.0500       1.2494180
       5850.5200       1.2121670
       5851.9900       1.1843310
       5853.4600       1.2678650
       5854.9300       1.2292170
       5856.4000       1.2681910
       5857.8700       1.3153990
       5859.3400       1.3379050
       5860.8100       1.2982520
       5862.2800       1.3666220
       5863.7500       1.3679210
       5865.2200       1.3790830
       5866.6900       1.4135050
       5868.1600       1.3770720
       5869.6300       1.4401260
       5871.1000       1.4651610
       5872.5700       1.4328470
       5874.0400       1.4536180
       5875.5100       1.4281360
       5876.9800       1.4477650
       5878.4500       1.5145880
       5879.9200       1.5565440
       5881.3900       1.5457480
       5882.8600       1.5334650
       5884.3300       1.5353510
       5885.8000       1.4982500
       5887.2700       1.4947370
       5888.7400       1.5117810
       5890.2100       1.5317800
       5891.6800       1.5660030
       5893.1500       1.5917990
       5894.6200       1.6277030
       5896.0900       1.6350220
       5897.5600       1.6709800
       5899.0300       1.6287350
       5900.5000       1.5912140
       5901.9700       1.5929970
       5903.4400       1.5666880
       5904.9100       1.6246020
       5906.3800       1.6588540
       5907.8500       1.6066500
       5909.3200       1.5750140
       5910.7900       1.5667560
       5912.2600       1.6144420
       5913.7300       1.6251670
       5915.2000       1.5632080
       5916.6700       1.5195210
       5918.1400       1.5288060
       5919.6100       1.5514860
       5921.0800       1.5832040
       5922.5500       1.6483280
       5924.0200       1.6120100
       5925.4900       1.6105360
       5926.9600       1.6554610
       5928.4300       1.5957910
       5929.9000       1.6217450
       5931.3700       1.6742460
       5932.8400       1.6402670
       5934.3100       1.6750700
       5935.7800       1.6709040
       5937.2500       1.6167900
       5938.7200       1.6403240
       5940.1900       1.6249230
       5941.6600       1.6247570
       5943.1300       1.6005620
       5944.6000       1.5545050
       5946.0700       1.6070010
       5947.5400       1.6158140
       5949.0100       1.6212360
       5950.4800       1.6209740
       5951.9500       1.5539520
       5953.4200       1.5907210
       5954.8900       1.5988740
       5956.3600       1.5811770
       5957.8300       1.5519250
       5959.3000       1.5863670
       5960.7700       1.5909370
       5962.2400       1.5493480
       5963.7100       1.5575530
       5965.1800       1.4951780
       5966.6500       1.5203020
       5968.1200       1.5668260
       5969.5900       1.5588180
       5971.0600       1.6106590
       5972.5300       1.5997820
       5974.0000       1.5378620
       5975.4700       1.4955960
       5976.9400       1.4556380
       5978.4100       1.4872530
       5979.8800       1.4947770
       5981.3500       1.4928420
       5982.8200       1.5018130
       5984.2900       1.5366170
       5985.7600       1.4989860
       5987.2300       1.5292420
       5988.7000       1.5433700
       5990.1700       1.5119520
       5991.6400       1.4793990
       5993.1100       1.4613290
       5994.5800       1.4762470
       5996.0500       1.4777710
       5997.5200       1.4834670
       5998.9900       1.4728170
       6000.4600       1.4101200
       6001.9300       1.3729930
       6003.3999       1.3943210
       6004.8700       1.4358230
       6006.3400       1.4437470
       6007.8100       1.4190690
       6009.2800       1.3758240
       6010.7500       1.3665330
       6012.2200       1.4375620
       6013.6900       1.3933410
       6015.1600       1.3495030
       6016.6300       1.3788780
       6018.1000       1.3703120
       6019.5700       1.3636010
       6021.0400       1.3574190
       6022.5100       1.3410810
       6023.9800       1.3040820
       6025.4500       1.2929270
       6026.9200       1.3373510
       6028.3900       1.3190480
       6029.8600       1.3222130
       6031.3300       1.2974830
       6032.8000       1.2926500
       6034.2700       1.2713610
       6035.7400       1.2559480
       6037.2100       1.2791710
       6038.6800       1.2355140
       6040.1500       1.2040230
       6041.6200       1.2233280
       6043.0900       1.2532400
       6044.5600       1.2322740
       6046.0300       1.1873850
       6047.5000       1.1927000
       6048.9700       1.1682580
       6050.4400       1.1238830
       6051.9100       1.1787810
       6053.3800       1.1808240
       6054.8500       1.1727380
       6056.3200       1.1902020
       6057.7900       1.1312730
       6059.2600       1.1516710
       6060.7300       1.0939660
       6062.2000       1.0778220
       6063.6700       1.1052270
       6065.1400       1.0993780
       6066.6100       1.0910740
       6068.0800       1.0768340
       6069.5500       1.0567020
       6071.0200       1.0598740
       6072.4900       1.0712460
       6073.9600       1.0255950
       6075.4300       1.0429150
       6076.9000       1.0451950
       6078.3700       1.0351180
       6079.8400       1.0269660
       6081.3100       1.0229620
       6082.7800       1.0281940
       6084.2500       1.0324180
       6085.7200       1.0326690
       6087.1900       1.0307550
       6088.6600       1.0241120
       6090.1300       1.0119450
       6091.6000       1.0353800
       6093.0700       1.0561680
       6094.5400       1.0656960
       6096.0100       1.0913660
       6097.4800       1.0833740
       6098.9500       1.0927730
       6100.4200       1.0875040
       6101.8900       1.0995190
       6103.3600       1.0752690
       6104.8300       1.0453460
       6106.3000       1.0355010
       6107.7700       1.0834520
       6109.2400       1.1024300
       6110.7100       1.1191560
       6112.1800       1.1156570
       6113.6500       1.1070890
       6115.1200       1.0881360
       6116.5900       1.0883790
       6118.0600       1.1357240
       6119.5300       1.1247940
       6121.0000       1.1038440
       6122.4700       1.1175610
       6123.9400       1.1511250
       6125.4100       1.1535620
       6126.8800       1.1071650
       6128.3500       1.1336400
       6129.8200       1.1672260
       6131.2900       1.1711280
       6132.7600       1.1228970
       6134.2300       1.0743680
       6135.7000       1.0696850
       6137.1700       1.0966300
       6138.6400       1.1663150
       6140.1100       1.1597210
       6141.5800       1.1376020
       6143.0500       1.1751850
       6144.5200       1.1588020
       6145.9900       1.1358750
       6147.4600       1.1167310
       6148.9300       1.0792580
       6150.4000       1.0840640
       6151.8700       1.1278670
       6153.3400       1.1431840
       6154.8100       1.1264230
       6156.2800       1.1375240
       6157.7500       1.1515350
       6159.2200       1.1385820
       6160.6900       1.1290130
       6162.1600       1.1470730
       6163.6300       1.1676130
       6165.1000       1.1644690
       6166.5700       1.1615710
       6168.0400       1.1542340
       6169.5100       1.1312860
       6170.9800       1.1312850
       6172.4500       1.1451910
       6173.9200       1.1701270
       6175.3900       1.1669980
       6176.8600       1.1349760
       6178.3300       1.1593680
       6179.8000       1.1975860
       6181.2700       1.1964010
       6182.7400       1.2552750
       6184.2100       1.2633210
       6185.6800       1.2284130
       6187.1500       1.2787600
       6188.6200       1.2727990
       6190.0900       1.2175310
       6191.5600       1.2492440
       6193.0300       1.2926810
       6194.5000       1.2932750
       6195.9700       1.3272000
       6197.4400       1.3262430
       6198.9100       1.3270650
       6200.3800       1.3500130
       6201.8500       1.3161930
       6203.3200       1.3151070
       6204.7900       1.3767900
       6206.2600       1.3860480
       6207.7300       1.4248670
       6209.2000       1.4561090
       6210.6700       1.4379120
       6212.1400       1.4533190
       6213.6100       1.4845980
       6215.0800       1.4901300
       6216.5500       1.4880490
       6218.0200       1.4726270
       6219.4900       1.5629260
       6220.9600       1.6096340
       6222.4300       1.5644740
       6223.9000       1.5689270
       6225.3700       1.6194380
       6226.8400       1.6352200
       6228.3100       1.6307950
       6229.7800       1.6149690
       6231.2500       1.6518050
       6232.7200       1.6973850
       6234.1900       1.6561490
       6235.6600       1.6248210
       6237.1300       1.6163590
       6238.6000       1.6542700
       6240.0700       1.6271320
       6241.5400       1.5989330
       6243.0100       1.6334460
       6244.4800       1.6218160
       6245.9500       1.6693760
       6247.4200       1.6662070
       6248.8900       1.6434450
       6250.3600       1.6598530
       6251.8300       1.6122130
       6253.3000       1.6289080
       6254.7700       1.6689300
       6256.2400       1.6276370
       6257.7100       1.6678030
       6259.1800       1.6063580
       6260.6500       1.6400660
       6262.1200       1.6669820
       6263.5900       1.6425390
       6265.0600       1.5891020
       6266.5300       1.6508470
       6268.0000       1.6563500
       6269.4700       1.6985860
       6270.9400       1.7015970
       6272.4100       1.6557120
       6273.8800       1.6466230
       6275.3500       1.6204440
       6276.8200       1.6846560
       6278.2900       1.6622470
       6279.7600       1.6446180
       6281.2300       1.6543040
       6282.7000       1.6976780
       6284.1700       1.7271950
       6285.6400       1.7007220
       6287.1100       1.6698370
       6288.5800       1.6808430
       6290.0500       1.7189910
       6291.5200       1.6760510
       6292.9900       1.6720250
       6294.4600       1.6865250
       6295.9300       1.6373820
       6297.4000       1.6663750
       6298.8700       1.6648270
       6300.3400       1.6377470
       6301.8100       1.6115230
       6303.2800       1.6129000
       6304.7500       1.6321510
       6306.2200       1.7091340
       6307.6900       1.6388020
       6309.1600       1.5608040
       6310.6300       1.5204560
       6312.1000       1.5630960
       6313.5700       1.5586970
       6315.0400       1.5445670
       6316.5099       1.5552810
       6317.9800       1.5645350
       6319.4500       1.5656540
       6320.9200       1.5771010
       6322.3900       1.5392310
       6323.8600       1.5843660
       6325.3300       1.6157930
       6326.8000       1.5491690
       6328.2700       1.5407260
       6329.7400       1.5712740
       6331.2100       1.5517120
       6332.6800       1.5477270
       6334.1500       1.5193120
       6335.6200       1.5278780
       6337.0900       1.5530770
       6338.5600       1.5070400
       6340.0300       1.4487950
       6341.5000       1.4537590
       6342.9700       1.5202910
       6344.4400       1.5143050
       6345.9100       1.4689300
       6347.3800       1.4756510
       6348.8500       1.4755490
       6350.3200       1.5030470
       6351.7900       1.4751260
       6353.2600       1.4202710
       6354.7300       1.4406920
       6356.2000       1.4332600
       6357.6700       1.4103200
       6359.1400       1.4314070
       6360.6100       1.4583830
       6362.0800       1.5071170
       6363.5500       1.5018910
       6365.0200       1.4667300
       6366.4900       1.4789700
       6367.9600       1.4542280
       6369.4300       1.4623710
       6370.9000       1.4619690
       6372.3700       1.4277620
       6373.8400       1.4327460
       6375.3100       1.4206390
       6376.7800       1.4156240
       6378.2500       1.3876500
       6379.7200       1.3433720
       6381.1900       1.3844520
       6382.6600       1.4454710
       6384.1300       1.4251460
       6385.6000       1.3954960
       6387.0700       1.3974300
       6388.5400       1.3828690
       6390.0100       1.3294360
       6391.4800       1.3431690
       6392.9500       1.3825990
       6394.4200       1.3346440
       6395.8900       1.3345570
       6397.3600       1.3667460
       6398.8300       1.3807000
       6400.3000       1.3732970
       6401.7700       1.3548230
       6403.2400       1.3618000
       6404.7100       1.3784080
       6406.1800       1.3589890
       6407.6500       1.3037020
       6409.1200       1.2746380
       6410.5900       1.2894670
       6412.0600       1.3346070
       6413.5300       1.3620300
       6415.0000       1.3146000
       6416.4700       1.2969390
       6417.9400       1.3279040
       6419.4100       1.3062910
       6420.8800       1.3185920
       6422.3500       1.2863180
       6423.8200       1.2756990
       6425.2900       1.2609090
       6426.7600       1.2893130
       6428.2300       1.3295310
       6429.7000       1.3117260
       6431.1700       1.3233970
       6432.6400       1.3561810
       6434.1100       1.3503080
       6435.5800       1.2975150
       6437.0500       1.2688890
       6438.5200       1.3012210
       6439.9900       1.3604660
       6441.4600       1.3734610
       6442.9300       1.3443930
       6444.4000       1.3055530
       6445.8700       1.2874410
       6447.3400       1.3232110
       6448.8100       1.3442270
       6450.2800       1.3546640
       6451.7500       1.3850210
       6453.2200       1.3810410
       6454.6900       1.4185840
       6456.1600       1.3954500
       6457.6300       1.3434440
       6459.1000       1.3861970
       6460.5700       1.4290920
       6462.0400       1.4560150
       6463.5100       1.4815480
       6464.9800       1.4841490
       6466.4500       1.4979490
       6467.9200       1.4745980
       6469.3900       1.4353420
       6470.8600       1.4221190
       6472.3300       1.4573800
       6473.8000       1.4604550
       6475.2700       1.4627500
       6476.7400       1.4615760
       6478.2100       1.4435680
       6479.6800       1.4031710
       6481.1500       1.4143510
       6482.6200       1.4062290
       6484.0900       1.4312710
       6485.5600       1.4781380
       6487.0300       1.4890070
       6488.5000       1.4774850
       6489.9700       1.4350290
       6491.4400       1.3922550
       6492.9100       1.4098130
       6494.3800       1.4174390
       6495.8500       1.4193010
       6497.3200       1.4549650
       6498.7900       1.4158590
       6500.2600       1.3863110
       6501.7300       1.4168290
       6503.2000       1.4387800
       6504.6700       1.4453850
       6506.1400       1.4681050
       6507.6100       1.4630530
       6509.0800       1.4275600
       6510.5500       1.4399810
       6512.0200       1.4516320
       6513.4900       1.4093100
       6514.9600       1.3928360
       6516.4300       1.3938310
       6517.9000       1.3737230
       6519.3700       1.4059230
       6520.8400       1.4000930
       6522.3100       1.3614020
       6523.7800       1.3773410
       6525.2500       1.4619210
       6526.7200       1.4544200
       6528.1900       1.4403030
       6529.6600       1.4264000
       6531.1300       1.3546670
       6532.6000       1.3167290
       6534.0700       1.3356970
       6535.5400       1.3320240
       6537.0100       1.3600310
       6538.4800       1.3999740
       6539.9500       1.3579040
       6541.4200       1.3478520
       6542.8900       1.3649670
       6544.3600       1.3471260
       6545.8300       1.3279540
       6547.3000       1.3404600
       6548.7700       1.3680160
       6550.2400       1.3846170
       6551.7100       1.3694570
       6553.1800       1.3437070
       6554.6500       1.3731840
       6556.1200       1.4106480
       6557.5900       1.3887660
       6559.0600       1.3530340
       6560.5300       1.3808810
       6562.0000       1.3966110
       6563.4700       1.3988540
       6564.9400       1.4326590
       6566.4100       1.4340600
       6567.8800       1.4263090
       6569.3500       1.3818850
       6570.8200       1.3442880
       6572.2900       1.3771360
       6573.7600       1.3781220
       6575.2300       1.4267700
       6576.7000       1.4819780
       6578.1700       1.4296950
       6579.6400       1.4165140
       6581.1100       1.4255760
       6582.5800       1.3983600
       6584.0500       1.3854670
       6585.5200       1.3813830
       6586.9900       1.4337560
       6588.4600       1.5294470
       6589.9300       1.5940640
       6591.4000       1.6131410
       6592.8700       1.6215020
       6594.3400       1.6457940
       6595.8100       1.5892230
       6597.2800       1.4565720
       6598.7500       1.3709960
       6600.2200       1.3638460
       6601.6900       1.3745110
       6603.1600       1.3296800
       6604.6300       1.3084920
       6606.1000       1.3336470
       6607.5700       1.3262930
       6609.0400       1.3545360
       6610.5100       1.3961000
       6611.9800       1.3934400
       6613.4500       1.4302380
       6614.9200       1.4508870
       6616.3900       1.3923000
       6617.8600       1.3465550
       6619.3300       1.3589650
       6620.8000       1.3459060
       6622.2700       1.3202420
       6623.7400       1.3309760
       6625.2100       1.3516280
       6626.6800       1.3460280
       6628.1500       1.3309610
       6629.6199       1.3090570
       6631.0900       1.2858200
       6632.5600       1.3195470
       6634.0300       1.3338540
       6635.5000       1.2856750
       6636.9700       1.2628590
       6638.4400       1.2950780
       6639.9100       1.3124270
       6641.3800       1.2715730
       6642.8500       1.2451180
       6644.3200       1.2711490
       6645.7900       1.2829580
       6647.2600       1.2611040
       6648.7300       1.2503270
       6650.2000       1.2754260
       6651.6700       1.2654390
       6653.1400       1.2471300
       6654.6100       1.2507020
       6656.0800       1.2307170
       6657.5500       1.2568350
       6659.0200       1.2855850
       6660.4900       1.2566990
       6661.9600       1.2051950
       6663.4300       1.1904670
       6664.9000       1.2210040
       6666.3700       1.2451200
       6667.8400       1.2676670
       6669.3100       1.2587620
       6670.7800       1.2413080
       6672.2500       1.2568400
       6673.7200       1.2628460
       6675.1900       1.2566020
       6676.6600       1.2009340
       6678.1300       1.1894010
       6679.6000       1.2374330
       6681.0700       1.2180370
       6682.5400       1.2089330
       6684.0100       1.2256860
       6685.4800       1.2022900
       6686.9500       1.1773900
       6688.4200       1.1696480
       6689.8900       1.1632570
       6691.3600       1.1544490
       6692.8300       1.1453670
       6694.3000       1.1649080
       6695.7700       1.1726150
       6697.2400       1.1823950
       6698.7100       1.2175550
       6700.1800       1.2062450
       6701.6500       1.1734620
       6703.1200       1.1800350
       6704.5900       1.1613540
       6706.0600       1.1453620
       6707.5300       1.1587240
       6709.0000       1.1439590
       6710.4700       1.1129530
       6711.9400       1.1219660
       6713.4100       1.1592670
       6714.8800       1.1227940
       6716.3500       1.1350540
       6717.8200       1.1795450
       6719.2900       1.1444200
       6720.7600       1.1174710
       6722.2300       1.1176900
       6723.7000       1.0981420
       6725.1700       1.0901740
       6726.6400       1.0915910
       6728.1100       1.0668990
       6729.5800       1.0404020
       6731.0500       1.0271950
       6732.5200       1.0509190
       6733.9900       1.0698120
       6735.4600       1.0526970
       6736.9300       1.0241360
       6738.4000       1.0239730
       6739.8700       1.0325740
       6741.3400       1.0393630
       6742.8100       1.0603650
       6744.2800       1.0718210
       6745.7500       1.0761290
       6747.2200       1.0747320
       6748.6900       1.0829730
       6750.1600       1.0968380
       6751.6300       1.0727560
       6753.1000       1.0328110
       6754.5700       1.0145990
       6756.0400       1.0090950
       6757.5100       1.0425450
       6758.9800       1.0569150
       6760.4500       1.0135700
       6761.9200       1.0302850
       6763.3900       1.0744990
       6764.8600       1.0492150
       6766.3300       1.0039480
       6767.8000      0.99692200
       6769.2700       1.0094800
       6770.7400       1.0234680
       6772.2100      0.99381860
       6773.6800      0.95733220
       6775.1500      0.97836550
       6776.6200       1.0091610
       6778.0900       1.0098850
       6779.5600       1.0219680
       6781.0300       1.0097100
       6782.5000       1.0287270
       6783.9700       1.0732180
       6785.4400       1.0476750
       6786.9100       1.0133550
       6788.3800       1.0059720
       6789.8500       1.0047750
       6791.3200       1.0103310
       6792.7900       1.0199620
       6794.2600       1.0141310
       6795.7300       1.0272240
       6797.2000       1.0437260
       6798.6700       1.0445100
       6800.1400       1.0569360
       6801.6100       1.0632590
       6803.0800       1.0331220
       6804.5500       1.0291300
       6806.0200       1.0676320
       6807.4900       1.0838700
       6808.9600       1.0494330
       6810.4300       1.0193950
       6811.9000       1.0312880
       6813.3700       1.0203120
       6814.8400      0.99774100
       6816.3100       1.0084320
       6817.7800       1.0454610
       6819.2500       1.0344400
       6820.7200       1.0285930
       6822.1900       1.0523820
       6823.6600       1.0236130
       6825.1300       1.0044850
       6826.6000       1.0162170
       6828.0700       1.0393880
       6829.5400       1.0151770
       6831.0100      0.95655700
       6832.4800      0.97718900
       6833.9500       1.0317330
       6835.4200       1.0321560
       6836.8900      0.99857650
       6838.3600       1.0024230
       6839.8300       1.0255270
       6841.3000      0.99456150
       6842.7700      0.97331210
       6844.2400      0.98912170
       6845.7100      0.99348870
       6847.1800       1.0004560
       6848.6500       1.0077020
       6850.1200       1.0116220
       6851.5900       1.0051050
       6853.0600      0.98415260
       6854.5300      0.95836750
       6856.0000      0.95445080
       6857.4700      0.95228420
       6858.9400      0.91447340
       6860.4100      0.88900640
       6861.8800      0.89906590
       6863.3500      0.90913110
       6864.8200      0.87903220
       6866.2900      0.89310080
       6867.7600      0.93574660
       6869.2300      0.89368670
       6870.7000      0.89187280
       6872.1700      0.92488420
       6873.6400      0.87062980
       6875.1100      0.86647100
       6876.5800      0.91888260
       6878.0500      0.89607760
       6879.5200      0.86815400
       6880.9900      0.87167950
       6882.4600      0.89703970
       6883.9300      0.92221920
       6885.4000      0.92556850
       6886.8700      0.91783520
       6888.3400      0.88429250
       6889.8100      0.89316920
       6891.2800      0.88960400
       6892.7500      0.85089430
       6894.2200      0.88772300
       6895.6900      0.88261660
       6897.1600      0.83788250
       6898.6300      0.87075440
       6900.1000      0.87917740
       6901.5700      0.86616800
       6903.0400      0.85082050
       6904.5100      0.88803550
       6905.9800      0.86698470
       6907.4500      0.82996030
       6908.9200      0.81847460
       6910.3900      0.78822410
       6911.8600      0.78574870
       6913.3300      0.82009810
       6914.8000      0.85268110
       6916.2700      0.85175960
       6917.7400      0.81148090
       6919.2100      0.79329100
       6920.6800      0.80135160
       6922.1500      0.83405440
       6923.6200      0.82707600
       6925.0900      0.81457580
       6926.5600      0.82672290
       6928.0300      0.84096880
       6929.5000      0.86666210
       6930.9700      0.83260800
       6932.4400      0.83364250
       6933.9100      0.84286980
       6935.3800      0.87872560
       6936.8500      0.88284250
       6938.3200      0.91044590
       6939.7900      0.89646350
       6941.2600      0.89062580
       6942.7299      0.91808400
       6944.2000      0.90754490
       6945.6700      0.87522030
       6947.1400      0.87945870
       6948.6100      0.90281440
       6950.0800      0.94319600
       6951.5500      0.95414800
       6953.0200      0.93461860
       6954.4900      0.94850030
       6955.9600      0.97483430
       6957.4300      0.93728270
       6958.9000      0.96665140
       6960.3700       1.0396290
       6961.8400       1.0211260
       6963.3100      0.98201880
       6964.7800      0.95773020
       6966.2500      0.98493810
       6967.7200      0.97418700
       6969.1900      0.94052330
       6970.6600      0.97312340
       6972.1300      0.98126010
       6973.6000      0.97744760
       6975.0700      0.98506080
       6976.5400       1.0007800
       6978.0100       1.0286790
       6979.4800      0.98557000
       6980.9500       1.0136490
       6982.4200      0.99571900
       6983.8900      0.96075870
       6985.3600      0.98174420
       6986.8300       1.0086790
       6988.3000       1.0568320
       6989.7700       1.0502100
       6991.2400       1.0438130
       6992.7100       1.0617640
       6994.1800       1.0487290
       6995.6500       1.0413660
       6997.1200      0.98731190
       6998.5900      0.97274070
       7000.0600       1.0226490
       7001.5300       1.0597260
       7003.0000       1.0158040
       7004.4700       1.0249900
       7005.9400       1.0296320
       7007.4100       1.0358320
       7008.8800       1.0749570
       7010.3500       1.0848750
       7011.8200       1.0537480
       7013.2900       1.0463550
       7014.7600       1.1758980
       7016.2300       1.2284300
       7017.7000       1.0860320
       7019.1700       1.0232140
       7020.6400       1.0416960
       7022.1100       1.0299670
       7023.5800       1.0301860
       7025.0500       1.0670030
       7026.5200       1.0588750
       7027.9900       1.0581050
       7029.4600       1.0530160
       7030.9300       1.0393810
       7032.4000       1.0577790
       7033.8700       1.0676570
       7035.3400       1.0464150
       7036.8100       1.0414040
       7038.2800       1.0205390
       7039.7500       1.0368770
       7041.2200       1.0107160
       7042.6900       1.0149770
       7044.1600       1.0234090
       7045.6300       1.0119310
       7047.1000       1.0229720
       7048.5700       1.0193110
       7050.0400      0.98884920
       7051.5100       1.0134830
       7052.9800       1.0374830
       7054.4500       1.0654820
       7055.9200       1.0284870
       7057.3900       1.0278900
       7058.8600       1.0478300
       7060.3300      0.99163990
       7061.8000       1.0063310
       7063.2700      0.99053720
       7064.7400      0.97945550
       7066.2100       1.0131650
       7067.6800       1.0076630
       7069.1500      0.99574260
       7070.6200       1.0071160
       7072.0900      0.97843580
       7073.5600      0.98177520
       7075.0300      0.99925950
       7076.5000      0.98387390
       7077.9700      0.96814820
       7079.4400      0.98036390
       7080.9100      0.98650410
       7082.3800      0.98220580
       7083.8500       1.0170400
       7085.3200       1.0225210
       7086.7900      0.99945800
       7088.2600      0.96283970
       7089.7300      0.94961390
       7091.2000      0.96630190
       7092.6700      0.98962130
       7094.1400      0.96132930
       7095.6100      0.97164840
       7097.0800      0.98487730
       7098.5500       1.0007400
       7100.0200       1.0143920
       7101.4900      0.99587430
       7102.9600      0.97951510
       7104.4300      0.94882050
       7105.9000      0.95704510
       7107.3700      0.97466080
       7108.8400      0.96214840
       7110.3100      0.97073800
       7111.7800      0.95722840
       7113.2500      0.94579360
       7114.7200      0.94922140
       7116.1900      0.95312990
       7117.6600      0.95316990
       7119.1300      0.94459200
       7120.6000      0.98197840
       7122.0700       1.0072120
       7123.5400       1.0160220
       7125.0100       1.0142640
       7126.4800      0.99181870
       7127.9500      0.97982650
       7129.4200      0.96084010
       7130.8900      0.97293090
       7132.3600      0.97501040
       7133.8300      0.96293940
       7135.3000      0.94431820
       7136.7700      0.94560170
       7138.2400      0.96430100
       7139.7100      0.94081570
       7141.1800      0.91570320
       7142.6500      0.92461850
       7144.1200      0.92657560
       7145.5900      0.94579820
       7147.0600      0.98975090
       7148.5300      0.97250480
       7150.0000      0.93003360
       7151.4700      0.96790270
       7152.9400       1.0231140
       7154.4100       1.0518950
       7155.8800       1.0510830
       7157.3500       1.0087460
       7158.8200       1.0186190
       7160.2900       1.0488930
       7161.7600       1.0159820
       7163.2300      0.98312300
       7164.7000      0.98989460
       7166.1700       1.0437810
       7167.6400       1.0617810
       7169.1100       1.0491140
       7170.5800       1.1067220
       7172.0500       1.0990640
       7173.5200       1.1021290
       7174.9900       1.1370920
       7176.4600       1.0944690
       7177.9300       1.0539390
       7179.4000       1.0492930
       7180.8700       1.0758450
       7182.3400       1.0609530
       7183.8100       1.0537030
       7185.2800       1.1010600
       7186.7500       1.1160830
       7188.2200       1.1129900
       7189.6900       1.1128110
       7191.1600       1.1234060
       7192.6300       1.1467970
       7194.1000       1.1289480
       7195.5700       1.0778660
       7197.0400       1.0610650
       7198.5100       1.0787060
       7199.9800       1.1061670
       7201.4500       1.1187710
       7202.9200       1.1123800
       7204.3900       1.0704750
       7205.8600       1.0318790
       7207.3300       1.0411840
       7208.8000       1.0559590
       7210.2700       1.0600430
       7211.7400       1.0466410
       7213.2100       1.0416650
       7214.6800       1.0823140
       7216.1500       1.0577440
       7217.6200       1.0787890
       7219.0900       1.0712930
       7220.5600       1.0499910
       7222.0300       1.1340800
       7223.5000       1.1519160
       7224.9700       1.1031080
       7226.4400       1.1246930
       7227.9100       1.0658090
       7229.3800       1.0862870
       7230.8500       1.1595650
       7232.3200       1.1700100
       7233.7900       1.1526560
       7235.2600       1.1685680
       7236.7300       1.2171820
       7238.2000       1.1570420
       7239.6700       1.1043980
       7241.1400       1.1468540
       7242.6100       1.1878010
       7244.0800       1.2081670
       7245.5500       1.2014760
       7247.0200       1.1430520
       7248.4900       1.1433850
       7249.9600       1.1396070
       7251.4300       1.1489580
       7252.9000       1.1626660
       7254.3700       1.1742610
       7255.8399       1.2256310
       7257.3100       1.1707800
       7258.7800       1.1556690
       7260.2500       1.1672020
       7261.7200       1.1976010
       7263.1900       1.2324980
       7264.6600       1.2781830
       7266.1300       1.2708090
       7267.6000       1.2213030
       7269.0700       1.1599800
       7270.5400       1.1819760
       7272.0100       1.2560620
       7273.4800       1.3078250
       7274.9500       1.3412110
       7276.4200       1.3392560
       7277.8900       1.2832330
       7279.3600       1.3260880
       7280.8300       1.2467960
       7282.3000       1.2060860
       7283.7700       1.2289720
       7285.2400       1.2113470
       7286.7100       1.1989850
       7288.1800       1.1990340
       7289.6500       1.2805460
       7291.1200       1.2839920
       7292.5900       1.2604040
       7294.0600       1.2679040
       7295.5300       1.2946400
       7297.0000       1.2131660
       7298.4700       1.2465630
       7299.9400       1.2919470
       7301.4100       1.2856900
       7302.8800       1.3479100
       7304.3500       1.3582980
       7305.8200       1.2875910
       7307.2900       1.2914410
       7308.7600       1.3381660
       7310.2300       1.3353520
       7311.7000       1.3120180
       7313.1700       1.3131760
       7314.6400       1.3494880
       7316.1100       1.3269780
       7317.5800       1.4213710
       7319.0500       1.4020980
       7320.5200       1.2859690
       7321.9900       1.3296870
       7323.4600       1.2933180
       7324.9300       1.2286250
       7326.4000       1.2907810
       7327.8700       1.3344350
       7329.3400       1.2634930
       7330.8100       1.1845430
       7332.2800       1.2658370
       7333.7500       1.2627470
       7335.2200       1.2504920
       7336.6900       1.2201490
       7338.1600       1.2453690
       7339.6300       1.2614260
       7341.1000       1.2615340
       7342.5700       1.2909900
       7344.0400       1.3125410
       7345.5100       1.2985480
       7346.9800       1.2623170
       7348.4500       1.2626610
       7349.9200       1.3174720
       7351.3900       1.2793130
       7352.8600       1.2450940
       7354.3300       1.2493710
       7355.8000       1.2751110
       7357.2700       1.2514870
       7358.7400       1.2344610
       7360.2100       1.2631980
       7361.6800       1.2972390
       7363.1500       1.2166640
       7364.6200       1.2041960
       7366.0900       1.2063180
       7367.5600       1.2656730
       7369.0300       1.2152150
       7370.5000       1.1955990
       7371.9700       1.2309220
       7373.4400       1.1830330
       7374.9100       1.1146140
       7376.3800       1.1818830
       7377.8500       1.2542470
       7379.3200       1.2079210
       7380.7900       1.1879740
       7382.2600       1.1805570
       7383.7300       1.1995130
       7385.2000       1.2486060
       7386.6700       1.2358480
       7388.1400       1.1690830
       7389.6100       1.1920730
       7391.0800       1.2194570
       7392.5500       1.1252580
       7394.0200       1.1483770
       7395.4900       1.1039670
       7396.9600       1.1697970
       7398.4300       1.1919750
       7399.9000       1.1304120
       7401.3700       1.1439880
       7402.8400       1.1276270
       7404.3100       1.1465210
       7405.7800       1.1585830
       7407.2500       1.2015410
       7408.7200       1.1364770
       7410.1900       1.1467780
       7411.6600       1.1670840
       7413.1300       1.1299180
       7414.6000       1.1332490
       7416.0700       1.1679550
       7417.5400       1.1329680
       7419.0100       1.1280110
