Units are: observed wavelength (Ang), observed flux (10^-15 erg/s/cm^2/Ang)
       3474.0000     0.080681000
       3475.4700    -0.072671340
       3476.9400     -0.54899230
       3478.4100     -0.33518260
       3479.8800     0.021471670
       3481.3500     -0.33146180
       3482.8200     -0.25793660
       3484.2900     -0.11012840
       3485.7600     -0.22477700
       3487.2300     0.098721270
       3488.7000      0.21335030
       3490.1700      0.29183850
       3491.6400      0.49602540
       3493.1100      0.33960350
       3494.5800      0.16957600
       3496.0500      0.19775470
       3497.5200      0.36199060
       3498.9900      0.30773950
       3500.4600      0.24093100
       3501.9300      0.19608510
       3503.4000      0.18290030
       3504.8700      0.28910180
       3506.3400      0.25447300
       3507.8100      0.13140260
       3509.2800     0.010273760
       3510.7500    -0.073703640
       3512.2200     -0.14913420
       3513.6900    -0.053917630
       3515.1600    -0.036767460
       3516.6300    -0.030039170
       3518.1000      0.14629550
       3519.5700      0.17520250
       3521.0400    -0.071565950
       3522.5100     -0.19009070
       3523.9800      0.52200850
       3525.4500       1.0057670
       3526.9200      0.49429770
       3528.3900     0.043867270
       3529.8600      0.22061710
       3531.3300      0.61943550
       3532.8000      0.57301860
       3534.2700      0.14351730
       3535.7400   -0.0062846460
       3537.2100      0.12517030
       3538.6800      0.15036690
       3540.1500    -0.090735410
       3541.6200     -0.15965370
       3543.0900     0.084198630
       3544.5600     -0.15441720
       3546.0300     -0.32987960
       3547.5000     0.056943530
       3548.9700      0.18250480
       3550.4400    -0.053637990
       3551.9100     -0.10410260
       3553.3800     0.056909900
       3554.8500      0.38991930
       3556.3200      0.32411570
       3557.7900    -0.066081460
       3559.2600    -0.062516560
       3560.7300     0.015765750
       3562.2000     0.020042680
       3563.6700    -0.074549680
       3565.1400     -0.13313190
       3566.6100     0.043287090
       3568.0800      0.23235130
       3569.5500      0.15959500
       3571.0200      0.12533930
       3572.4900      0.24970500
       3573.9600      0.23515740
       3575.4300      0.31244440
       3576.9000      0.33819140
       3578.3700      0.14365990
       3579.8400     0.099859450
       3581.3100      0.11018970
       3582.7800     0.024576950
       3584.2500    -0.065306370
       3585.7200      0.16123860
       3587.1900      0.18617840
       3588.6600      0.19769360
       3590.1300      0.42486660
       3591.6000      0.19834820
       3593.0700     0.053728130
       3594.5400      0.29931310
       3596.0100      0.39507110
       3597.4800      0.28747490
       3598.9500      0.35146970
       3600.4200      0.40590810
       3601.8900      0.33716930
       3603.3600      0.10222240
       3604.8300     -0.10811900
       3606.3000    -0.025350540
       3607.7700      0.30024950
       3609.2400      0.30276000
       3610.7100      0.11562320
       3612.1800      0.21403810
       3613.6500      0.28645350
       3615.1200      0.36626360
       3616.5900      0.32350130
       3618.0600      0.28467300
       3619.5300      0.21527570
       3621.0000     0.071543920
       3622.4700      0.28177370
       3623.9400      0.94683890
       3625.4100      0.70029160
       3626.8800    -0.064393640
       3628.3500     0.095497240
       3629.8200      0.44003720
       3631.2900      0.35407210
       3632.7600     0.082928310
       3634.2300      0.14460080
       3635.7000      0.15392120
       3637.1700      0.15045840
       3638.6400      0.44340170
       3640.1100      0.41289880
       3641.5800      0.81131340
       3643.0500       1.8352410
       3644.5200      0.96494050
       3645.9900      0.18294310
       3647.4600       1.0216990
       3648.9300       1.2423610
       3650.4000      0.54068260
       3651.8700      0.19443710
       3653.3400      0.34015190
       3654.8100      0.18781060
       3656.2800      0.18638930
       3657.7500      0.24336250
       3659.2200      0.47183280
       3660.6900      0.87008560
       3662.1600      0.47024990
       3663.6300     0.047021380
       3665.1000     0.086128380
       3666.5700      0.24181270
       3668.0400      0.35800020
       3669.5100      0.22547070
       3670.9800      0.14046150
       3672.4500      0.19431310
       3673.9200      0.24052210
       3675.3900      0.16294230
       3676.8600      0.59774600
       3678.3300      0.90358130
       3679.8000      0.50926210
       3681.2700      0.36598250
       3682.7400      0.26521080
       3684.2100      0.27637680
       3685.6800      0.35338920
       3687.1500       1.0488810
       3688.6200       1.1979300
       3690.0900      0.34069100
       3691.5600      0.19804120
       3693.0300      0.25649590
       3694.5000      0.18537410
       3695.9700      0.20039500
       3697.4400      0.27527440
       3698.9100      0.81231980
       3700.3800      0.95343850
       3701.8500      0.27519630
       3703.3200      0.18418070
       3704.7900      0.16539280
       3706.2600     0.067725460
       3707.7300      0.21467170
       3709.2000      0.32604510
       3710.6700      0.23462130
       3712.1400      0.23886440
       3713.6100      0.47309350
       3715.0800      0.56901210
       3716.5500      0.29742910
       3718.0200      0.39236090
       3719.4900      0.69522930
       3720.9600      0.47789520
       3722.4300      0.12591880
       3723.9000      0.18965610
       3725.3700      0.17157860
       3726.8400      0.18848610
       3728.3100      0.23120190
       3729.7800      0.29759620
       3731.2500      0.28924260
       3732.7200      0.16126390
       3734.1900      0.19082750
       3735.6600      0.34972400
       3737.1300      0.33004530
       3738.6000      0.22753580
       3740.0700      0.33794220
       3741.5400      0.52454470
       3743.0100      0.51597010
       3744.4800      0.41760700
       3745.9500      0.24373740
       3747.4200      0.19772980
       3748.8900      0.33468070
       3750.3600      0.29803560
       3751.8300      0.26667850
       3753.3000      0.30227880
       3754.7700      0.35641720
       3756.2400      0.41158350
       3757.7100      0.55579550
       3759.1800      0.58533260
       3760.6500      0.34830790
       3762.1200      0.12887600
       3763.5900      0.45697900
       3765.0600      0.83944400
       3766.5300      0.38256430
       3768.0000      0.17921670
       3769.4700      0.28626710
       3770.9400      0.38919410
       3772.4100      0.53094450
       3773.8800      0.36564730
       3775.3500      0.31331280
       3776.8200      0.17992620
       3778.2901      0.15910940
       3779.7600      0.27954490
       3781.2300      0.33998780
       3782.7000      0.36108530
       3784.1700      0.36005520
       3785.6400      0.35110880
       3787.1100      0.30252800
       3788.5800      0.35990140
       3790.0500      0.16059630
       3791.5200      0.25398430
       3792.9900      0.29184810
       3794.4600      0.16690660
       3795.9300      0.18016380
       3797.4000      0.23411670
       3798.8700      0.23975040
       3800.3400      0.19200420
       3801.8100      0.30977750
       3803.2800      0.36547460
       3804.7500      0.35634250
       3806.2200      0.45328390
       3807.6900      0.45287880
       3809.1600      0.28468590
       3810.6300     0.044410400
       3812.1000     0.082500520
       3813.5700     0.068519660
       3815.0400      0.17957900
       3816.5100      0.24835300
       3817.9800      0.16428740
       3819.4500     0.074596230
       3820.9200      0.10934650
       3822.3900     0.083544460
       3823.8600     0.057460600
       3825.3300      0.12347010
       3826.8000     0.099529500
       3828.2700      0.13480400
       3829.7400      0.31610720
       3831.2100      0.33467420
       3832.6800      0.37956620
       3834.1500      0.35681050
       3835.6200      0.19169390
       3837.0900      0.24390810
       3838.5600      0.26157900
       3840.0300      0.15095980
       3841.5000      0.13578660
       3842.9700      0.27142940
       3844.4400      0.32192420
       3845.9100      0.25117710
       3847.3800      0.20074050
       3848.8500      0.22721790
       3850.3200      0.23173380
       3851.7900      0.27234770
       3853.2600      0.20600690
       3854.7300      0.12155140
       3856.2000      0.20013980
       3857.6700      0.20581120
       3859.1400      0.22023600
       3860.6100      0.34608520
       3862.0800      0.28117380
       3863.5500      0.22272150
       3865.0200      0.32503460
       3866.4900      0.25764800
       3867.9600      0.22882220
       3869.4300      0.40932300
       3870.9000      0.60104380
       3872.3700      0.73568080
       3873.8400      0.59785280
       3875.3100      0.46243630
       3876.7800      0.36015140
       3878.2500      0.32434220
       3879.7200      0.44999270
       3881.1900      0.53658320
       3882.6600      0.51189930
       3884.1300      0.41681250
       3885.6000      0.38118330
       3887.0700      0.48160830
       3888.5400      0.42895420
       3890.0100      0.41499460
       3891.4800      0.28230800
       3892.9500      0.51473800
       3894.4200      0.63602950
       3895.8900      0.37819820
       3897.3600      0.58684670
       3898.8300      0.61880900
       3900.3000      0.35912850
       3901.7700      0.40440900
       3903.2400      0.50652020
       3904.7100      0.48667780
       3906.1800      0.55999850
       3907.6500      0.63192940
       3909.1200      0.40620340
       3910.5900      0.53400180
       3912.0600      0.56058030
       3913.5300      0.45910030
       3915.0000      0.41318900
       3916.4700      0.48617800
       3917.9400      0.55063080
       3919.4100      0.49824350
       3920.8800      0.53508700
       3922.3500      0.71000020
       3923.8200      0.63704250
       3925.2900      0.50618200
       3926.7600      0.66492250
       3928.2300      0.66105770
       3929.7000      0.65074040
       3931.1700      0.68755630
       3932.6400      0.73624660
       3934.1100      0.62551190
       3935.5800      0.48198620
       3937.0500      0.68386050
       3938.5200      0.71343850
       3939.9900      0.56206750
       3941.4600      0.62456880
       3942.9300      0.93282850
       3944.4000      0.90274600
       3945.8700      0.73659940
       3947.3400      0.90611180
       3948.8100      0.83050540
       3950.2800      0.57653620
       3951.7500      0.59337310
       3953.2200      0.53089740
       3954.6900      0.51999970
       3956.1600      0.64706550
       3957.6300      0.76945680
       3959.1000      0.90330180
       3960.5700      0.77523630
       3962.0400      0.73582580
       3963.5100      0.81071440
       3964.9800      0.59375160
       3966.4500      0.58164620
       3967.9200      0.88967710
       3969.3900      0.98180150
       3970.8600      0.82966710
       3972.3300      0.83714510
       3973.8000      0.72389240
       3975.2700      0.78783980
       3976.7400      0.93280680
       3978.2100      0.82259820
       3979.6800      0.60150720
       3981.1500      0.64107190
       3982.6200      0.75020120
       3984.0900      0.68984630
       3985.5600      0.83187660
       3987.0300       1.0271860
       3988.5000      0.79780700
       3989.9700      0.72526070
       3991.4400      0.60115050
       3992.9100      0.60458560
       3994.3800      0.79616560
       3995.8500      0.93213950
       3997.3200      0.71699420
       3998.7900      0.63804130
       4000.2600      0.68880050
       4001.7300      0.78184490
       4003.2000      0.93731990
       4004.6700      0.86032830
       4006.1400      0.80283550
       4007.6100      0.98066500
       4009.0800      0.82664660
       4010.5500      0.78568710
       4012.0200      0.96760240
       4013.4900       1.1686590
       4014.9600      0.83706220
       4016.4300      0.80352330
       4017.9000      0.98039650
       4019.3700      0.90346490
       4020.8400      0.83323900
       4022.3100      0.64687090
       4023.7800      0.77864340
       4025.2500      0.90145830
       4026.7200      0.75974940
       4028.1900      0.68156180
       4029.6600      0.76914760
       4031.1300      0.75855490
       4032.6000      0.76486030
       4034.0700      0.97848840
       4035.5400      0.78627260
       4037.0100      0.74485440
       4038.4800      0.79673830
       4039.9500      0.70344080
       4041.4200      0.73913880
       4042.8900      0.86712340
       4044.3600      0.87585480
       4045.8300      0.62367910
       4047.3000      0.76613780
       4048.7700       1.0640320
       4050.2400      0.96071490
       4051.7100      0.73361830
       4053.1800      0.71245450
       4054.6500      0.68479420
       4056.1200      0.69408930
       4057.5900      0.64477110
       4059.0600      0.64559330
       4060.5300      0.64837310
       4062.0000      0.63364790
       4063.4700      0.64609120
       4064.9400      0.68542990
       4066.4100      0.63402700
       4067.8800      0.51930010
       4069.3500      0.60437160
       4070.8200      0.82063550
       4072.2900      0.90580370
       4073.7600      0.68903490
       4075.2300      0.55242160
       4076.7000      0.61099990
       4078.1700      0.54129170
       4079.6400      0.47450660
       4081.1100      0.58257470
       4082.5800      0.68363710
       4084.0500      0.66623590
       4085.5200      0.68610420
       4086.9900      0.63831870
       4088.4600      0.59167150
       4089.9300      0.63045700
       4091.4001      0.54398690
       4092.8700      0.54743610
       4094.3400      0.56192490
       4095.8100      0.54944800
       4097.2800      0.62982090
       4098.7500      0.61567060
       4100.2200      0.63697780
       4101.6900      0.62460770
       4103.1600      0.60405000
       4104.6300      0.52107880
       4106.1000      0.52264300
       4107.5700      0.60868470
       4109.0400      0.66027970
       4110.5100      0.59004720
       4111.9800      0.52915150
       4113.4500      0.60453160
       4114.9200      0.53393680
       4116.3900      0.49983920
       4117.8600      0.53471410
       4119.3300      0.41158030
       4120.8000      0.43034420
       4122.2700      0.51966740
       4123.7400      0.49603550
       4125.2100      0.49703850
       4126.6800      0.47191590
       4128.1500      0.54660260
       4129.6200      0.58708040
       4131.0900      0.59733320
       4132.5600      0.54194260
       4134.0300      0.45568050
       4135.5000      0.40573560
       4136.9700      0.44375380
       4138.4400      0.56695280
       4139.9100      0.53029910
       4141.3800      0.38060900
       4142.8500      0.42998680
       4144.3200      0.50194470
       4145.7900      0.48769200
       4147.2600      0.45596500
       4148.7300      0.42935110
       4150.2000      0.55460310
       4151.6700      0.51363180
       4153.1400      0.43582030
       4154.6100      0.45851090
       4156.0800      0.40810230
       4157.5500      0.38683710
       4159.0200      0.37964890
       4160.4900      0.35820060
       4161.9600      0.38873340
       4163.4300      0.32407810
       4164.9000      0.38441960
       4166.3700      0.39050570
       4167.8400      0.37817930
       4169.3100      0.37205640
       4170.7800      0.30147420
       4172.2500      0.34473670
       4173.7200      0.40974800
       4175.1900      0.36469850
       4176.6600      0.31227080
       4178.1300      0.37733550
       4179.6000      0.37713380
       4181.0700      0.34028510
       4182.5400      0.36362420
       4184.0100      0.36825720
       4185.4800      0.34615050
       4186.9500      0.35231290
       4188.4200      0.37276310
       4189.8900      0.33470110
       4191.3600      0.35620170
       4192.8300      0.39463910
       4194.3000      0.34674250
       4195.7700      0.35386060
       4197.2400      0.42551970
       4198.7100      0.43906660
       4200.1800      0.32128460
       4201.6500      0.28199930
       4203.1200      0.37470930
       4204.5900      0.39155550
       4206.0600      0.40304300
       4207.5300      0.37950260
       4209.0000      0.38706480
       4210.4700      0.40518980
       4211.9400      0.40086720
       4213.4100      0.37137600
       4214.8800      0.39392170
       4216.3500      0.39570590
       4217.8200      0.39321570
       4219.2900      0.36683630
       4220.7600      0.37258520
       4222.2300      0.37690190
       4223.7000      0.35304940
       4225.1700      0.36193800
       4226.6400      0.42886140
       4228.1100      0.49032300
       4229.5800      0.43584970
       4231.0500      0.36413660
       4232.5200      0.38970820
       4233.9900      0.41608670
       4235.4600      0.44297850
       4236.9300      0.44843310
       4238.4000      0.43488100
       4239.8700      0.46106700
       4241.3400      0.45151470
       4242.8100      0.41225580
       4244.2800      0.38399480
       4245.7500      0.35832550
       4247.2200      0.39534810
       4248.6900      0.43978410
       4250.1600      0.42052000
       4251.6300      0.38787000
       4253.1000      0.39186730
       4254.5700      0.41660650
       4256.0400      0.42312270
       4257.5100      0.42363540
       4258.9800      0.43015350
       4260.4500      0.42280470
       4261.9200      0.40859650
       4263.3900      0.39545200
       4264.8600      0.39895930
       4266.3300      0.41982830
       4267.8000      0.42779550
       4269.2700      0.42559560
       4270.7400      0.40994270
       4272.2100      0.39971960
       4273.6800      0.36378210
       4275.1500      0.39623240
       4276.6200      0.43390170
       4278.0900      0.43839680
       4279.5600      0.45503770
       4281.0300      0.45700060
       4282.5000      0.43554990
       4283.9700      0.44947570
       4285.4400      0.44587160
       4286.9100      0.41535390
       4288.3800      0.40795440
       4289.8500      0.40396750
       4291.3200      0.41961520
       4292.7900      0.47514320
       4294.2600      0.46732650
       4295.7300      0.42915350
       4297.2000      0.39495080
       4298.6700      0.41328270
       4300.1400      0.44821250
       4301.6100      0.42326180
       4303.0800      0.43364280
       4304.5500      0.46895680
       4306.0200      0.48763170
       4307.4900      0.44880940
       4308.9600      0.43026010
       4310.4300      0.44491610
       4311.9000      0.49454320
       4313.3700      0.44683500
       4314.8400      0.47310300
       4316.3100      0.48020000
       4317.7800      0.44073480
       4319.2500      0.41207850
       4320.7200      0.39453870
       4322.1900      0.43177310
       4323.6600      0.48063020
       4325.1300      0.51763930
       4326.6000      0.52814450
       4328.0700      0.51167480
       4329.5400      0.48780440
       4331.0100      0.43698090
       4332.4800      0.46189000
       4333.9500      0.46423990
       4335.4200      0.44484690
       4336.8900      0.44176300
       4338.3600      0.45998140
       4339.8300      0.46804020
       4341.3000      0.46479400
       4342.7700      0.46142080
       4344.2400      0.48824630
       4345.7100      0.51128220
       4347.1800      0.44778180
       4348.6500      0.46186760
       4350.1200      0.47272520
       4351.5900      0.44313430
       4353.0600      0.48230590
       4354.5300      0.48324320
       4356.0000      0.44337870
       4357.4700      0.47822330
       4358.9400      0.46883050
       4360.4100      0.51710400
       4361.8800      0.50546680
       4363.3500      0.45364010
       4364.8200      0.45964240
       4366.2900      0.42897920
       4367.7600      0.44372210
       4369.2300      0.45915120
       4370.7000      0.47324450
       4372.1700      0.54311050
       4373.6400      0.51220350
       4375.1100      0.46247470
       4376.5800      0.50404770
       4378.0500      0.48331240
       4379.5200      0.49506160
       4380.9900      0.50153740
       4382.4600      0.49217020
       4383.9300      0.48097090
       4385.4000      0.45806070
       4386.8700      0.46052830
       4388.3400      0.45126380
       4389.8100      0.45635230
       4391.2800      0.45790850
       4392.7500      0.48912750
       4394.2200      0.48447940
       4395.6900      0.49020950
       4397.1600      0.50638000
       4398.6300      0.49015380
       4400.1000      0.44297920
       4401.5700      0.46346140
       4403.0400      0.46615770
       4404.5101      0.44957320
       4405.9800      0.46249480
       4407.4500      0.47587580
       4408.9200      0.44197900
       4410.3900      0.41100170
       4411.8600      0.41186240
       4413.3300      0.39646690
       4414.8000      0.40579200
       4416.2700      0.43406970
       4417.7400      0.44128010
       4419.2100      0.43515930
       4420.6800      0.42350590
       4422.1500      0.41654620
       4423.6200      0.43527250
       4425.0900      0.41624370
       4426.5600      0.40014120
       4428.0300      0.41009530
       4429.5000      0.41114210
       4430.9700      0.39944510
       4432.4400      0.41926690
       4433.9100      0.44850920
       4435.3800      0.42116470
       4436.8500      0.41822930
       4438.3200      0.41980610
       4439.7900      0.43991740
       4441.2600      0.46549930
       4442.7300      0.47690800
       4444.2000      0.49689680
       4445.6700      0.45316380
       4447.1400      0.44710360
       4448.6100      0.43745400
       4450.0800      0.43074270
       4451.5500      0.43939970
       4453.0200      0.41239320
       4454.4900      0.43822650
       4455.9600      0.47380670
       4457.4300      0.47505780
       4458.9000      0.45537940
       4460.3700      0.41673560
       4461.8400      0.44593300
       4463.3100      0.47764100
       4464.7800      0.44780560
       4466.2500      0.42682110
       4467.7200      0.47981080
       4469.1900      0.52504640
       4470.6600      0.50791830
       4472.1300      0.50430750
       4473.6000      0.51025450
       4475.0700      0.51282620
       4476.5400      0.46457190
       4478.0100      0.47097420
       4479.4800      0.55589040
       4480.9500      0.53523470
       4482.4200      0.52423970
       4483.8900      0.56093500
       4485.3600      0.57992350
       4486.8300      0.55211970
       4488.3000      0.56407040
       4489.7700      0.62097690
       4491.2400      0.59148790
       4492.7100      0.52504580
       4494.1800      0.52330810
       4495.6500      0.58588370
       4497.1200      0.59611650
       4498.5900      0.58425030
       4500.0600      0.60309990
       4501.5300      0.61714510
       4503.0000      0.66319840
       4504.4700      0.70280390
       4505.9400      0.68600290
       4507.4100      0.67804990
       4508.8800      0.68277360
       4510.3500      0.71103230
       4511.8200      0.73014350
       4513.2900      0.69339640
       4514.7600      0.70128380
       4516.2300      0.74992550
       4517.7000      0.78993310
       4519.1700      0.75696480
       4520.6400      0.73754810
       4522.1100      0.79047700
       4523.5800      0.82466690
       4525.0500      0.82421640
       4526.5200      0.82223290
       4527.9900      0.82368340
       4529.4600      0.82437440
       4530.9300      0.82526020
       4532.4000      0.84077100
       4533.8700      0.85829370
       4535.3400      0.84688500
       4536.8100      0.84659450
       4538.2800      0.82096090
       4539.7500      0.80931790
       4541.2200      0.82682470
       4542.6900      0.90955870
       4544.1600      0.93128790
       4545.6300      0.91350050
       4547.1000      0.95980980
       4548.5700      0.92639810
       4550.0400      0.94303110
       4551.5100      0.97759800
       4552.9800      0.96612960
       4554.4500      0.91516230
       4555.9200      0.92734690
       4557.3900       1.0027980
       4558.8600       1.0295730
       4560.3300       1.0349940
       4561.8000       1.0486530
       4563.2700       1.0080390
       4564.7400       1.0276910
       4566.2100       1.0201700
       4567.6800       1.0050410
       4569.1500       1.0678420
       4570.6200       1.1006510
       4572.0900       1.0646840
       4573.5600       1.1020670
       4575.0300       1.1171170
       4576.5000       1.0433700
       4577.9700       1.0535030
       4579.4400       1.1262930
       4580.9100       1.1219910
       4582.3800       1.0966840
       4583.8500       1.1476170
       4585.3200       1.1773300
       4586.7900       1.1722280
       4588.2600       1.1841800
       4589.7300       1.2525010
       4591.2000       1.2303330
       4592.6700       1.2143830
       4594.1400       1.2516120
       4595.6100       1.3120880
       4597.0800       1.2482180
       4598.5500       1.2608260
       4600.0200       1.2492750
       4601.4900       1.1967580
       4602.9600       1.2157020
       4604.4300       1.1828730
       4605.9000       1.1875040
       4607.3700       1.2175280
       4608.8400       1.2288160
       4610.3100       1.1749370
       4611.7800       1.2136760
       4613.2500       1.2711000
       4614.7200       1.1709850
       4616.1900       1.1633420
       4617.6600       1.2362800
       4619.1300       1.2862410
       4620.6000       1.2734760
       4622.0700       1.2587120
       4623.5400       1.2547190
       4625.0100       1.2311210
       4626.4800       1.2637450
       4627.9500       1.2548840
       4629.4200       1.2662100
       4630.8900       1.2377620
       4632.3600       1.2547540
       4633.8300       1.2704470
       4635.3000       1.2806100
       4636.7700       1.3024940
       4638.2400       1.2458880
       4639.7100       1.2669120
       4641.1800       1.2461650
       4642.6500       1.2926470
       4644.1200       1.2755380
       4645.5900       1.2700430
       4647.0600       1.2276720
       4648.5300       1.2591260
       4650.0000       1.2307690
       4651.4700       1.1915310
       4652.9400       1.2513510
       4654.4100       1.2426570
       4655.8800       1.2220700
       4657.3500       1.2120300
       4658.8200       1.2108430
       4660.2900       1.2245110
       4661.7600       1.2004010
       4663.2300       1.1790210
       4664.7000       1.1846090
       4666.1700       1.1831170
       4667.6400       1.1292060
       4669.1100       1.0882080
       4670.5800       1.1252650
       4672.0500       1.1372910
       4673.5200       1.1220930
       4674.9900       1.1277640
       4676.4600       1.1044230
       4677.9300       1.1515350
       4679.4000       1.1281540
       4680.8700       1.1204300
       4682.3400       1.0725270
       4683.8100       1.1069850
       4685.2800       1.0696270
       4686.7500       1.0704100
       4688.2200       1.0792700
       4689.6900       1.0434840
       4691.1600       1.0420340
       4692.6300       1.0461170
       4694.1000       1.0148190
       4695.5700       1.0886110
       4697.0400       1.0488140
       4698.5100       1.0176200
       4699.9800      0.97693930
       4701.4500      0.95970040
       4702.9200      0.97904630
       4704.3900      0.95286680
       4705.8600      0.89750770
       4707.3300      0.90954920
       4708.8000      0.93597360
       4710.2700      0.94445950
       4711.7400      0.95955930
       4713.2100      0.92323900
       4714.6800      0.92237840
       4716.1500      0.93189670
       4717.6201      0.87014620
       4719.0900      0.87540760
       4720.5600      0.90502400
       4722.0300      0.90280510
       4723.5000      0.89163650
       4724.9700      0.88054550
       4726.4400      0.89396310
       4727.9100      0.89788190
       4729.3800      0.84057700
       4730.8500      0.85018860
       4732.3200      0.84784700
       4733.7900      0.85630520
       4735.2600      0.88834710
       4736.7300      0.85682340
       4738.2000      0.85625810
       4739.6700      0.93900910
       4741.1400      0.87122260
       4742.6100      0.83582050
       4744.0800      0.86651010
       4745.5500      0.84703400
       4747.0200      0.84368430
       4748.4900      0.82182320
       4749.9600      0.78797500
       4751.4300      0.75956200
       4752.9000      0.82163590
       4754.3700      0.80744360
       4755.8400      0.78757290
       4757.3100      0.78999940
       4758.7800      0.78947980
       4760.2500      0.80622800
       4761.7200      0.83014300
       4763.1900      0.81172610
       4764.6600      0.82682750
       4766.1300      0.78637830
       4767.6000      0.73475030
       4769.0700      0.74940720
       4770.5400      0.77726690
       4772.0100      0.73448000
       4773.4800      0.74847820
       4774.9500      0.73730630
       4776.4200      0.78257430
       4777.8900      0.77504760
       4779.3600      0.73686810
       4780.8300      0.72246130
       4782.3000      0.72916020
       4783.7700      0.71613500
       4785.2400      0.73673050
       4786.7100      0.75558220
       4788.1800      0.71804060
       4789.6500      0.70802410
       4791.1200      0.68936720
       4792.5900      0.68761500
       4794.0600      0.70512070
       4795.5300      0.66721870
       4797.0000      0.64734330
       4798.4700      0.67599340
       4799.9400      0.65705730
       4801.4100      0.62288620
       4802.8800      0.65820560
       4804.3500      0.66925290
       4805.8200      0.66201990
       4807.2900      0.64710800
       4808.7600      0.68877470
       4810.2300      0.69503270
       4811.7000      0.65308360
       4813.1700      0.66984790
       4814.6400      0.64711650
       4816.1100      0.64937430
       4817.5800      0.64418340
       4819.0500      0.66844480
       4820.5200      0.68976910
       4821.9900      0.59992840
       4823.4600      0.61975770
       4824.9300      0.63881710
       4826.4000      0.64567610
       4827.8700      0.64379740
       4829.3400      0.68532750
       4830.8100      0.70056770
       4832.2800      0.67640530
       4833.7500      0.68410340
       4835.2200      0.75040450
       4836.6900      0.71127060
       4838.1600      0.71637310
       4839.6300      0.74474460
       4841.1000      0.70861730
       4842.5700      0.74014050
       4844.0400      0.75125360
       4845.5100      0.72561080
       4846.9800      0.72704210
       4848.4500      0.69902800
       4849.9200      0.76054970
       4851.3900      0.73251620
       4852.8600      0.71356860
       4854.3300      0.75499810
       4855.8000      0.77597490
       4857.2700      0.74363080
       4858.7400      0.76304450
       4860.2100      0.73599730
       4861.6800      0.77665110
       4863.1500      0.72672730
       4864.6200      0.70514520
       4866.0900      0.68488430
       4867.5600      0.72688180
       4869.0300      0.72207360
       4870.5000      0.70247260
       4871.9700      0.72525420
       4873.4400      0.69944780
       4874.9100      0.70516120
       4876.3800      0.71622100
       4877.8500      0.70649840
       4879.3200      0.65180180
       4880.7900      0.72042240
       4882.2600      0.76336000
       4883.7300      0.79799820
       4885.2000      0.75406030
       4886.6700      0.70393480
       4888.1400      0.70324430
       4889.6100      0.72678200
       4891.0800      0.72917690
       4892.5500      0.70282970
       4894.0200      0.71482570
       4895.4900      0.69266020
       4896.9600      0.68647540
       4898.4300      0.75929320
       4899.9000      0.72053860
       4901.3700      0.70889730
       4902.8400      0.71763490
       4904.3100      0.70797190
       4905.7800      0.68279000
       4907.2500      0.71650550
       4908.7200      0.77550980
       4910.1900      0.77442470
       4911.6600      0.77928490
       4913.1300      0.73777350
       4914.6000      0.74411190
       4916.0700      0.76401810
       4917.5400      0.77055230
       4919.0100      0.80550940
       4920.4800      0.77653480
       4921.9500      0.77984930
       4923.4200      0.81038490
       4924.8900      0.76757740
       4926.3600      0.80126890
       4927.8300      0.78081890
       4929.3000      0.78516950
       4930.7700      0.78718610
       4932.2400      0.78053890
       4933.7100      0.82323910
       4935.1800      0.82628670
       4936.6500      0.84408190
       4938.1200      0.81987910
       4939.5900      0.81036850
       4941.0600      0.86128940
       4942.5300      0.87096420
       4944.0000      0.88222800
       4945.4700      0.88653100
       4946.9400      0.88807230
       4948.4100      0.86973130
       4949.8800      0.87643350
       4951.3500      0.92398390
       4952.8200      0.93456410
       4954.2900      0.92580010
       4955.7600      0.95000580
       4957.2300      0.94289520
       4958.7000      0.94786960
       4960.1700       1.0080150
       4961.6400      0.95396250
       4963.1100      0.98049070
       4964.5800       1.0567920
       4966.0500       1.0340260
       4967.5200       1.0640400
       4968.9900       1.0584990
       4970.4600       1.0531320
       4971.9300       1.0707200
       4973.4000       1.0446270
       4974.8700       1.0456860
       4976.3400       1.0938550
       4977.8100       1.1529990
       4979.2800       1.1171830
       4980.7500       1.1396280
       4982.2200       1.1381490
       4983.6900       1.1354120
       4985.1600       1.1097130
       4986.6300       1.1231710
       4988.1000       1.0864500
       4989.5700       1.0954010
       4991.0400       1.0876130
       4992.5100       1.0858450
       4993.9800       1.0792420
       4995.4500       1.0775440
       4996.9200       1.0136110
       4998.3900      0.98381910
       4999.8600      0.96247510
       5001.3300       1.0138850
       5002.8000      0.98474910
       5004.2700      0.97275910
       5005.7400      0.95255120
       5007.2100      0.92173470
       5008.6800      0.88799960
       5010.1500      0.89793220
       5011.6200      0.84915780
       5013.0900      0.80936570
       5014.5600      0.85116600
       5016.0300      0.83889930
       5017.5000      0.79852940
       5018.9700      0.77159480
       5020.4400      0.80210070
       5021.9100      0.79241410
       5023.3800      0.77866670
       5024.8500      0.80608670
       5026.3200      0.80175230
       5027.7900      0.79432760
       5029.2600      0.79078500
       5030.7299      0.77471760
       5032.2000      0.76865340
       5033.6700      0.75147910
       5035.1400      0.72723080
       5036.6100      0.69165610
       5038.0800      0.68274860
       5039.5500      0.69520340
       5041.0200      0.72042060
       5042.4900      0.67018220
       5043.9600      0.62675050
       5045.4300      0.63898400
       5046.9000      0.67295340
       5048.3700      0.63409360
       5049.8400      0.67973090
       5051.3100      0.63681260
       5052.7800      0.63777960
       5054.2500      0.63962530
       5055.7200      0.59953370
       5057.1900      0.61969980
       5058.6600      0.62461890
       5060.1300      0.59818260
       5061.6000      0.59624080
       5063.0700      0.61232010
       5064.5400      0.62707020
       5066.0100      0.59312430
       5067.4800      0.57677860
       5068.9500      0.63176300
       5070.4200      0.61098820
       5071.8900      0.58908500
       5073.3600      0.65376510
       5074.8300      0.64601730
       5076.3000      0.59451680
       5077.7700      0.62028710
       5079.2400      0.61120220
       5080.7100      0.59469960
       5082.1800      0.63720420
       5083.6500      0.59651100
       5085.1200      0.59781820
       5086.5900      0.63166270
       5088.0600      0.63159380
       5089.5300      0.63207100
       5091.0000      0.60333700
       5092.4700      0.61337760
       5093.9400      0.62580010
       5095.4100      0.64938950
       5096.8800      0.64900460
       5098.3500      0.60680320
       5099.8200      0.62472870
       5101.2900      0.66539130
       5102.7600      0.67460140
       5104.2300      0.64537500
       5105.7000      0.63692780
       5107.1700      0.68272260
       5108.6400      0.69388010
       5110.1100      0.66113260
       5111.5800      0.64540070
       5113.0500      0.67108710
       5114.5200      0.71448840
       5115.9900      0.67838500
       5117.4600      0.68939950
       5118.9300      0.70646880
       5120.4000      0.71672340
       5121.8700      0.70297320
       5123.3400      0.72543120
       5124.8100      0.73871950
       5126.2800      0.77612500
       5127.7500      0.78167120
       5129.2200      0.75717850
       5130.6900      0.78466010
       5132.1600      0.76721810
       5133.6300      0.77144260
       5135.1000      0.78682290
       5136.5700      0.78431270
       5138.0400      0.82030400
       5139.5100      0.81834510
       5140.9800      0.87941910
       5142.4500      0.84648000
       5143.9200      0.82170580
       5145.3900      0.83283880
       5146.8600      0.84815560
       5148.3300      0.87047810
       5149.8000      0.84362240
       5151.2700      0.83848950
       5152.7400      0.86030850
       5154.2100      0.84724520
       5155.6800      0.90197170
       5157.1500      0.88366010
       5158.6200      0.84007270
       5160.0900      0.84646510
       5161.5600      0.87167700
       5163.0300      0.90732870
       5164.5000      0.88766790
       5165.9700      0.86731020
       5167.4400      0.88591740
       5168.9100      0.86445430
       5170.3800      0.87664630
       5171.8500      0.90863900
       5173.3200      0.90203860
       5174.7900      0.88111950
       5176.2600      0.87371410
       5177.7300      0.89493270
       5179.2000      0.85534000
       5180.6700      0.88576110
       5182.1400      0.89014110
       5183.6100      0.90152850
       5185.0800      0.89910550
       5186.5500      0.87823500
       5188.0200      0.94793830
       5189.4900      0.92624380
       5190.9600      0.89360340
       5192.4300      0.89565580
       5193.9000      0.90431110
       5195.3700      0.90721290
       5196.8400      0.86103050
       5198.3100      0.86436040
       5199.7800      0.91691640
       5201.2500      0.94291270
       5202.7200      0.95014550
       5204.1900      0.91858820
       5205.6600      0.90784730
       5207.1300      0.93639020
       5208.6000      0.91441660
       5210.0700      0.91209060
       5211.5400      0.92731450
       5213.0100      0.91614900
       5214.4800      0.92341160
       5215.9500      0.93310270
       5217.4200      0.91885900
       5218.8900      0.97356060
       5220.3600      0.98643200
       5221.8300      0.96255930
       5223.3000       1.0121920
       5224.7700       1.0190310
       5226.2400       1.0073260
       5227.7100      0.97475810
       5229.1800      0.94967640
       5230.6500      0.98509660
       5232.1200       1.0820960
       5233.5900       1.0922970
       5235.0600       1.0669540
       5236.5300       1.0501380
       5238.0000       1.0369130
       5239.4700       1.0381490
       5240.9400       1.0717900
       5242.4100       1.0901380
       5243.8800       1.0751190
       5245.3500       1.0699330
       5246.8200       1.0961340
       5248.2900       1.1143470
       5249.7600       1.1044810
       5251.2300       1.0875970
       5252.7000       1.1003610
       5254.1700       1.1152460
       5255.6400       1.1053430
       5257.1100       1.0876420
       5258.5800       1.0935320
       5260.0500       1.1331060
       5261.5200       1.0870160
       5262.9900       1.1117590
       5264.4600       1.1324520
       5265.9300       1.1342130
       5267.4000       1.1414960
       5268.8700       1.1173920
       5270.3400       1.1410780
       5271.8100       1.1423720
       5273.2800       1.1091740
       5274.7500       1.1312550
       5276.2200       1.1640070
       5277.6900       1.1672400
       5279.1600       1.1392650
       5280.6300       1.1797260
       5282.1000       1.1947570
       5283.5700       1.2139900
       5285.0400       1.1566240
       5286.5100       1.2093640
       5287.9800       1.2580850
       5289.4500       1.1980440
       5290.9200       1.2210360
       5292.3900       1.2486450
       5293.8600       1.2475230
       5295.3300       1.2906780
       5296.8000       1.2540240
       5298.2700       1.2428770
       5299.7400       1.2652220
       5301.2100       1.2829400
       5302.6800       1.2975220
       5304.1500       1.2343080
       5305.6200       1.3076670
       5307.0900       1.3021580
       5308.5600       1.2520620
       5310.0300       1.2414720
       5311.5000       1.2677550
       5312.9700       1.2934100
       5314.4400       1.2772570
       5315.9100       1.2633790
       5317.3800       1.2715430
       5318.8500       1.2597610
       5320.3200       1.3124820
       5321.7900       1.3437850
       5323.2600       1.3257470
       5324.7300       1.2864610
       5326.2000       1.2759380
       5327.6700       1.3435390
       5329.1400       1.4054530
       5330.6100       1.3604340
       5332.0800       1.3475100
       5333.5500       1.3415240
       5335.0200       1.3229710
       5336.4900       1.3085020
       5337.9600       1.3597440
       5339.4300       1.3663200
       5340.9000       1.3492470
       5342.3700       1.3458350
       5343.8399       1.3817090
       5345.3100       1.3597380
       5346.7800       1.3743180
       5348.2500       1.4099950
       5349.7200       1.3770690
       5351.1900       1.3883190
       5352.6600       1.4058580
       5354.1300       1.3568060
       5355.6000       1.3610530
       5357.0700       1.3622020
       5358.5400       1.3700930
       5360.0100       1.4380880
       5361.4800       1.4283190
       5362.9500       1.4148890
       5364.4200       1.4246400
       5365.8900       1.3859250
       5367.3600       1.3284450
       5368.8300       1.3825110
       5370.3000       1.4343430
       5371.7700       1.4483630
       5373.2400       1.4248930
       5374.7100       1.3748230
       5376.1800       1.4402170
       5377.6500       1.4382330
       5379.1200       1.3868810
       5380.5900       1.3874490
       5382.0600       1.4077810
       5383.5300       1.4134490
       5385.0000       1.3610800
       5386.4700       1.3403850
       5387.9400       1.3633610
       5389.4100       1.4058100
       5390.8800       1.3783020
       5392.3500       1.3859700
       5393.8200       1.3859390
       5395.2900       1.3773450
       5396.7600       1.3293330
       5398.2300       1.3279940
       5399.7000       1.3917420
       5401.1700       1.4050150
       5402.6400       1.3662540
       5404.1100       1.3377800
       5405.5800       1.3510160
       5407.0500       1.3702740
       5408.5200       1.3123240
       5409.9900       1.3153620
       5411.4600       1.3104130
       5412.9300       1.3562840
       5414.4000       1.3325870
       5415.8700       1.2650630
       5417.3400       1.2469490
       5418.8100       1.2506720
       5420.2800       1.2193500
       5421.7500       1.2063350
       5423.2200       1.2228070
       5424.6900       1.2992450
       5426.1600       1.2546580
       5427.6300       1.2119490
       5429.1000       1.1827580
       5430.5700       1.1852600
       5432.0400       1.2097090
       5433.5100       1.1524280
       5434.9800       1.1677850
       5436.4500       1.1477200
       5437.9200       1.1872460
       5439.3900       1.1631370
       5440.8600       1.1813910
       5442.3300       1.1928850
       5443.8000       1.1635260
       5445.2700       1.0816900
       5446.7400       1.1285340
       5448.2100       1.1428130
       5449.6800       1.1183220
       5451.1500       1.1725010
       5452.6200       1.1320270
       5454.0900       1.1087200
       5455.5600       1.1409780
       5457.0300       1.1607990
       5458.5000       1.1628020
       5459.9700       1.1336350
       5461.4400       1.1536380
       5462.9100       1.1968300
       5464.3800       1.1618480
       5465.8500       1.1620310
       5467.3200       1.2313270
       5468.7900       1.2404220
       5470.2600       1.2258960
       5471.7300       1.2330030
       5473.2000       1.2461990
       5474.6700       1.2297420
       5476.1400       1.2975210
       5477.6100       1.3684740
       5479.0800       1.3280390
       5480.5500       1.3575520
       5482.0200       1.4116400
       5483.4900       1.4132940
       5484.9600       1.4553070
       5486.4300       1.4788120
       5487.9000       1.4676010
       5489.3700       1.5348090
       5490.8400       1.5392610
       5492.3100       1.5446310
       5493.7800       1.6019000
       5495.2500       1.6498710
       5496.7200       1.6713790
       5498.1900       1.6514450
       5499.6600       1.6276400
       5501.1300       1.6660610
       5502.6000       1.6853270
       5504.0700       1.7516250
       5505.5400       1.8139550
       5507.0100       1.8187810
       5508.4800       1.8451700
       5509.9500       1.8574300
       5511.4200       1.8497630
       5512.8900       1.8930110
       5514.3600       1.9293380
       5515.8300       1.9634930
       5517.3000       1.9486500
       5518.7700       1.9788970
       5520.2400       2.0078130
       5521.7100       1.9596150
       5523.1800       1.9485580
       5524.6500       1.9634770
       5526.1200       1.9558500
       5527.5900       1.9377620
       5529.0600       1.9743130
       5530.5300       2.0151810
       5532.0000       1.9901730
       5533.4700       2.0085730
       5534.9400       2.0058070
       5536.4100       1.9341230
       5537.8800       1.9517370
       5539.3500       1.9560010
       5540.8200       1.9278730
       5542.2900       1.9444340
       5543.7600       1.9304150
       5545.2300       1.8647560
       5546.7000       1.8328910
       5548.1700       1.8701410
       5549.6400       1.8396240
       5551.1100       1.8193360
       5552.5800       1.8412950
       5554.0500       1.7964530
       5555.5200       1.7701180
       5556.9900       1.7631510
       5558.4600       1.7404990
       5559.9300       1.7326560
       5561.4000       1.7041480
       5562.8700       1.6576260
       5564.3400       1.6494260
       5565.8100       1.5940430
       5567.2800       1.5639320
       5568.7500       1.5356750
       5570.2200       1.5419870
       5571.6900       1.5291840
       5573.1600       1.4846630
       5574.6300       1.4647150
       5576.1000       1.4242630
       5577.5700       1.3592650
       5579.0400       1.3292830
       5580.5100       1.2987280
       5581.9800       1.3082820
       5583.4500       1.2986100
       5584.9200       1.2844030
       5586.3900       1.2855830
       5587.8600       1.3009260
       5589.3300       1.2457240
       5590.8000       1.2216920
       5592.2700       1.2345580
       5593.7400       1.2255780
       5595.2100       1.1946610
       5596.6800       1.2147430
       5598.1500       1.1874200
       5599.6200       1.2022280
       5601.0900       1.2128250
       5602.5600       1.2191920
       5604.0300       1.2202410
       5605.5000       1.2569220
       5606.9700       1.2113860
       5608.4400       1.2591170
       5609.9100       1.2638020
       5611.3800       1.2690640
       5612.8500       1.2628940
       5614.3200       1.2778800
       5615.7900       1.2780410
       5617.2600       1.2914570
       5618.7300       1.2874380
       5620.2000       1.3076910
       5621.6700       1.3308710
       5623.1400       1.3496810
       5624.6100       1.3245260
       5626.0800       1.3783430
       5627.5500       1.3879470
       5629.0200       1.3558880
       5630.4900       1.4194480
       5631.9600       1.4504750
       5633.4300       1.4221000
       5634.9000       1.4120380
       5636.3700       1.3981270
       5637.8400       1.4415750
       5639.3100       1.4541250
       5640.7800       1.4687460
       5642.2500       1.4774060
       5643.7200       1.4939490
       5645.1900       1.4777640
       5646.6600       1.5200640
       5648.1300       1.5218120
       5649.6000       1.4911890
       5651.0700       1.4400280
       5652.5400       1.4710940
       5654.0100       1.4477950
       5655.4800       1.5183690
       5656.9499       1.4873610
       5658.4200       1.4544260
       5659.8900       1.4141050
       5661.3600       1.3791450
       5662.8300       1.3641550
       5664.3000       1.3035980
       5665.7700       1.2528650
       5667.2400       1.2325700
       5668.7100       1.2043060
       5670.1800       1.1715500
       5671.6500       1.1649210
       5673.1200       1.1302930
       5674.5900       1.1189510
       5676.0600       1.1061390
       5677.5300       1.0452260
       5679.0000       1.0024790
       5680.4700       1.0152640
       5681.9400       1.0029460
       5683.4100      0.97943650
       5684.8800      0.97768000
       5686.3500      0.96490250
       5687.8200      0.90891180
       5689.2900      0.88692070
       5690.7600      0.89944250
       5692.2300      0.89065340
       5693.7000      0.84363000
       5695.1700      0.79946490
       5696.6400      0.83675120
       5698.1100      0.88601650
       5699.5800      0.88000920
       5701.0500      0.85238260
       5702.5200      0.86244620
       5703.9900      0.84817610
       5705.4600      0.80458370
       5706.9300      0.81251200
       5708.4000      0.79545380
       5709.8700      0.76609650
       5711.3400      0.79923300
       5712.8100      0.78111260
       5714.2800      0.74492310
       5715.7500      0.77465890
       5717.2200      0.77643660
       5718.6900      0.72705740
       5720.1600      0.71174810
       5721.6300      0.76112130
       5723.1000      0.77163760
       5724.5700      0.75867770
       5726.0400      0.77668600
       5727.5100      0.79020450
       5728.9800      0.76705230
       5730.4500      0.77555040
       5731.9200      0.76383330
       5733.3900      0.76819990
       5734.8600      0.78775690
       5736.3300      0.79324100
       5737.8000      0.77370850
       5739.2700      0.76981520
       5740.7400      0.79478820
       5742.2100      0.76876900
       5743.6800      0.75287930
       5745.1500      0.76608580
       5746.6200      0.74725880
       5748.0900      0.72487440
       5749.5600      0.71451990
       5751.0300      0.70606980
       5752.5000      0.69944630
       5753.9700      0.68832700
       5755.4400      0.70298000
       5756.9100      0.71047060
       5758.3800      0.68343500
       5759.8500      0.67171230
       5761.3200      0.67315520
       5762.7900      0.67308660
       5764.2600      0.69746370
       5765.7300      0.70433190
       5767.2000      0.68721260
       5768.6700      0.67758410
       5770.1400      0.67972300
       5771.6100      0.67866140
       5773.0800      0.66946610
       5774.5500      0.65853790
       5776.0200      0.66724820
       5777.4900      0.69581170
       5778.9600      0.70001020
       5780.4300      0.67899600
       5781.9000      0.64353350
       5783.3700      0.65516160
       5784.8400      0.68109880
       5786.3100      0.65820350
       5787.7800      0.65983440
       5789.2500      0.68820580
       5790.7200      0.67989960
       5792.1900      0.63923060
       5793.6600      0.64209720
       5795.1300      0.66781930
       5796.6000      0.70118250
       5798.0700      0.69868150
       5799.5400      0.69335110
       5801.0100      0.71646750
       5802.4800      0.68888250
       5803.9500      0.70213430
       5805.4200      0.71980780
       5806.8900      0.72646620
       5808.3600      0.69564620
       5809.8300      0.69016270
       5811.3000      0.71445660
       5812.7700      0.77841970
       5814.2400      0.78679790
       5815.7100      0.76374180
       5817.1800      0.77284330
       5818.6500      0.80376830
       5820.1200      0.80736960
       5821.5900      0.82405460
       5823.0600      0.85167190
       5824.5300      0.87124520
       5826.0000      0.89378360
       5827.4700      0.90869000
       5828.9400      0.94221910
       5830.4100      0.93525030
       5831.8800      0.95720120
       5833.3500       1.0167870
       5834.8200       1.0245810
       5836.2900       1.0245170
       5837.7600       1.0528480
       5839.2300       1.0623740
       5840.7000       1.0887130
       5842.1700       1.1395700
       5843.6400       1.1208910
       5845.1100       1.1292890
       5846.5800       1.1691220
       5848.0500       1.1881740
       5849.5200       1.2379090
       5850.9900       1.2514190
       5852.4600       1.2601030
       5853.9300       1.2785120
       5855.4000       1.3186160
       5856.8700       1.3019380
       5858.3400       1.2969020
       5859.8100       1.3805320
       5861.2800       1.3706610
       5862.7500       1.3465570
       5864.2200       1.3643660
       5865.6900       1.3849150
       5867.1600       1.3847880
       5868.6300       1.4160470
       5870.1000       1.4545150
       5871.5700       1.4495280
       5873.0400       1.4823740
       5874.5100       1.5254400
       5875.9800       1.5400890
       5877.4500       1.4812890
       5878.9200       1.5238650
       5880.3900       1.5056040
       5881.8600       1.5535550
       5883.3300       1.5777810
       5884.8000       1.5552150
       5886.2700       1.5202670
       5887.7400       1.5103590
       5889.2100       1.5803740
       5890.6800       1.5906700
       5892.1500       1.5488510
       5893.6200       1.5501620
       5895.0900       1.5971670
       5896.5600       1.5834710
       5898.0300       1.5868670
       5899.5000       1.6262370
       5900.9700       1.6342980
       5902.4400       1.6016540
       5903.9100       1.6627870
       5905.3800       1.6665200
       5906.8500       1.6392460
       5908.3200       1.6578110
       5909.7900       1.6435460
       5911.2600       1.7108210
       5912.7300       1.6841800
       5914.2000       1.6137450
       5915.6700       1.6297460
       5917.1400       1.6459300
       5918.6100       1.6187850
       5920.0800       1.6284400
       5921.5500       1.6587260
       5923.0200       1.6363290
       5924.4900       1.5973260
       5925.9600       1.5815210
       5927.4300       1.6678790
       5928.9000       1.6824160
       5930.3700       1.6499860
       5931.8400       1.6897520
       5933.3100       1.6417250
       5934.7800       1.5994190
       5936.2500       1.6391240
       5937.7200       1.6859550
       5939.1900       1.6815770
       5940.6600       1.6170920
       5942.1300       1.6079040
       5943.6000       1.6561700
       5945.0700       1.6392880
       5946.5400       1.5950610
       5948.0100       1.6044060
       5949.4800       1.5474210
       5950.9500       1.6024450
       5952.4200       1.6570890
       5953.8900       1.6410170
       5955.3600       1.6096620
       5956.8300       1.5792580
       5958.3000       1.5779590
       5959.7700       1.6087290
       5961.2400       1.6093040
       5962.7100       1.5509250
       5964.1800       1.5769130
       5965.6500       1.5593860
       5967.1200       1.5240490
       5968.5900       1.5268160
       5970.0599       1.5192810
       5971.5300       1.5264990
       5973.0000       1.5344430
       5974.4700       1.5362790
       5975.9400       1.5449150
       5977.4100       1.5722910
       5978.8800       1.5677490
       5980.3500       1.5409050
       5981.8200       1.5477050
       5983.2900       1.5370040
       5984.7600       1.4891580
       5986.2300       1.4928930
       5987.7000       1.5193090
       5989.1700       1.5332480
       5990.6400       1.5306390
       5992.1100       1.5099300
       5993.5800       1.4885840
       5995.0500       1.4672980
       5996.5200       1.4783510
       5997.9900       1.4996290
       5999.4600       1.4755850
       6000.9300       1.4860320
       6002.4000       1.5002620
       6003.8700       1.4557910
       6005.3400       1.4412270
       6006.8100       1.4461150
       6008.2800       1.4612070
       6009.7500       1.4571580
       6011.2200       1.4422730
       6012.6900       1.4501250
       6014.1600       1.4200260
       6015.6300       1.3657260
       6017.1000       1.4114150
       6018.5700       1.4187320
       6020.0400       1.3688790
       6021.5100       1.3429260
       6022.9800       1.3291210
       6024.4500       1.3165610
       6025.9200       1.3043820
       6027.3900       1.3311650
       6028.8600       1.3655990
       6030.3300       1.3294610
       6031.8000       1.3200600
       6033.2700       1.2888230
       6034.7400       1.2537910
       6036.2100       1.2699880
       6037.6800       1.2921830
       6039.1500       1.2744670
       6040.6200       1.2763670
       6042.0900       1.2776360
       6043.5600       1.2794570
       6045.0300       1.2736820
       6046.5000       1.2877830
       6047.9700       1.2729010
       6049.4400       1.1940850
       6050.9100       1.1867420
       6052.3800       1.1921340
       6053.8500       1.1710200
       6055.3200       1.1803760
       6056.7900       1.1631010
       6058.2600       1.2049910
       6059.7300       1.1747950
       6061.2000       1.1435600
       6062.6700       1.1426250
       6064.1400       1.1543750
       6065.6100       1.1125530
       6067.0800       1.0916700
       6068.5500       1.1293910
       6070.0200       1.0901490
       6071.4900       1.0704890
       6072.9600       1.0761020
       6074.4300       1.0711790
       6075.9000       1.0665880
       6077.3700       1.0488120
       6078.8400       1.0133310
       6080.3100       1.0393880
       6081.7800       1.0330840
       6083.2500       1.0220130
       6084.7200       1.0320220
       6086.1900       1.0789630
       6087.6600       1.0598440
       6089.1300       1.0512150
       6090.6000       1.0413360
       6092.0700       1.0265060
       6093.5400       1.0697280
       6095.0100       1.0837870
       6096.4800       1.0846830
       6097.9500       1.1252660
       6099.4200       1.0978550
       6100.8900       1.0743460
       6102.3600       1.0867010
       6103.8300       1.0873560
       6105.3000       1.1047150
       6106.7700       1.1308480
       6108.2400       1.0902940
       6109.7100       1.0754420
       6111.1800       1.1263430
       6112.6500       1.0989770
       6114.1200       1.0808620
       6115.5900       1.0873600
       6117.0600       1.1189420
       6118.5300       1.1352020
       6120.0000       1.1130110
       6121.4700       1.1377380
       6122.9400       1.1409110
       6124.4100       1.1411000
       6125.8800       1.1549100
       6127.3500       1.1652180
       6128.8200       1.1371480
       6130.2900       1.1306620
       6131.7600       1.1397840
       6133.2300       1.1556800
       6134.7000       1.1316020
       6136.1700       1.1364920
       6137.6400       1.1357540
       6139.1100       1.1206120
       6140.5800       1.1813610
       6142.0500       1.1719140
       6143.5200       1.1353040
       6144.9900       1.1222040
       6146.4600       1.1351470
       6147.9300       1.1653410
       6149.4000       1.1836930
       6150.8700       1.1916480
       6152.3400       1.1945710
       6153.8100       1.1296730
       6155.2800       1.1064430
       6156.7500       1.1348070
       6158.2200       1.1108450
       6159.6900       1.1308610
       6161.1600       1.1409700
       6162.6300       1.1624010
       6164.1000       1.1560190
       6165.5700       1.1209000
       6167.0400       1.1611790
       6168.5100       1.1723480
       6169.9800       1.1708600
       6171.4500       1.1857360
       6172.9200       1.1644540
       6174.3900       1.1728810
       6175.8600       1.1610730
       6177.3300       1.1443590
       6178.8000       1.1831190
       6180.2700       1.1874600
       6181.7400       1.1801170
       6183.2100       1.2050880
       6184.6800       1.2249950
       6186.1500       1.2180960
       6187.6200       1.2129260
       6189.0900       1.2700740
       6190.5600       1.2873160
       6192.0300       1.2944390
       6193.5000       1.2997030
       6194.9700       1.3105370
       6196.4400       1.3446330
       6197.9100       1.3497760
       6199.3800       1.3407460
       6200.8500       1.3521430
       6202.3200       1.4015610
       6203.7900       1.4208610
       6205.2600       1.4201940
       6206.7300       1.4290660
       6208.2000       1.4548370
       6209.6700       1.4876170
       6211.1400       1.4905630
       6212.6100       1.5015320
       6214.0800       1.5176020
       6215.5500       1.5192100
       6217.0200       1.5454640
       6218.4900       1.5401090
       6219.9600       1.5638600
       6221.4300       1.6146810
       6222.9000       1.5935750
       6224.3700       1.5973140
       6225.8400       1.6153590
       6227.3100       1.6442710
       6228.7800       1.6940960
       6230.2500       1.7349330
       6231.7200       1.7554190
       6233.1900       1.7492480
       6234.6600       1.7285330
       6236.1300       1.7664710
       6237.6000       1.7997120
       6239.0700       1.7636050
       6240.5400       1.7596600
       6242.0100       1.7499110
       6243.4800       1.7329450
       6244.9500       1.7267550
       6246.4200       1.7407760
       6247.8900       1.7649300
       6249.3600       1.7609960
       6250.8300       1.7531840
       6252.3000       1.7505150
       6253.7700       1.7744290
       6255.2400       1.7438630
       6256.7100       1.7934500
       6258.1800       1.8079900
       6259.6500       1.7390430
       6261.1200       1.7566190
       6262.5900       1.7547310
       6264.0600       1.7124910
       6265.5300       1.7150250
       6267.0000       1.7927650
       6268.4700       1.8072540
       6269.9400       1.7819790
       6271.4100       1.7872180
       6272.8800       1.7932350
       6274.3500       1.7305110
       6275.8200       1.7368170
       6277.2900       1.7375930
       6278.7600       1.7879940
       6280.2300       1.7770480
       6281.7000       1.7815760
       6283.1699       1.7434080
       6284.6400       1.7240270
       6286.1100       1.7974470
       6287.5800       1.8460010
       6289.0500       1.8264060
       6290.5200       1.7815250
       6291.9900       1.7355030
       6293.4600       1.8139920
       6294.9300       1.8018510
       6296.4000       1.7830610
       6297.8700       1.8243570
       6299.3400       1.7957190
       6300.8100       1.7903380
       6302.2800       1.7920140
       6303.7500       1.7085730
       6305.2200       1.7303580
       6306.6900       1.7076070
       6308.1600       1.6672920
       6309.6300       1.6576460
       6311.1000       1.6583990
       6312.5700       1.7146920
       6314.0400       1.7175550
       6315.5100       1.7036060
       6316.9800       1.7093300
       6318.4500       1.7178790
       6319.9200       1.7499120
       6321.3900       1.7124350
       6322.8600       1.6653510
       6324.3300       1.6762690
       6325.8000       1.6484720
       6327.2700       1.6629590
       6328.7400       1.6462680
       6330.2100       1.6065070
       6331.6800       1.6389030
       6333.1500       1.6565840
       6334.6200       1.6416930
       6336.0900       1.6268740
       6337.5600       1.6111020
       6339.0300       1.5930860
       6340.5000       1.5893720
       6341.9700       1.6520960
       6343.4400       1.5843640
       6344.9100       1.5458830
       6346.3800       1.5665080
       6347.8500       1.5585660
       6349.3200       1.5900030
       6350.7900       1.6025980
       6352.2600       1.5441590
       6353.7300       1.5553490
       6355.2000       1.5612280
       6356.6700       1.5569020
       6358.1400       1.5827350
       6359.6100       1.5619860
       6361.0800       1.5368790
       6362.5500       1.4979670
       6364.0200       1.5097400
       6365.4900       1.5659030
       6366.9600       1.5149530
       6368.4300       1.4671730
       6369.9000       1.5029560
       6371.3700       1.5236130
       6372.8400       1.5120980
       6374.3100       1.5267760
       6375.7800       1.5015950
       6377.2500       1.4819160
       6378.7200       1.4837950
       6380.1900       1.4747660
       6381.6600       1.4579700
       6383.1300       1.4396740
       6384.6000       1.4507720
       6386.0700       1.4622000
       6387.5400       1.4627470
       6389.0100       1.4363250
       6390.4800       1.4025740
       6391.9500       1.4005480
       6393.4200       1.4219070
       6394.8900       1.4173570
       6396.3600       1.3864100
       6397.8300       1.4190900
       6399.3000       1.4449270
       6400.7700       1.4438260
       6402.2400       1.4393900
       6403.7100       1.4036610
       6405.1800       1.3944100
       6406.6500       1.4112030
       6408.1200       1.3946710
       6409.5900       1.3382390
       6411.0600       1.3622100
       6412.5300       1.3995360
       6414.0000       1.3793990
       6415.4700       1.3841750
       6416.9400       1.3574100
       6418.4100       1.3277830
       6419.8800       1.3622360
       6421.3500       1.4090870
       6422.8200       1.3866420
       6424.2900       1.3456480
       6425.7600       1.3598650
       6427.2300       1.3831020
       6428.7000       1.3322230
       6430.1700       1.3056230
       6431.6400       1.3506180
       6433.1100       1.3324360
       6434.5800       1.3195470
       6436.0500       1.3472220
       6437.5200       1.3567270
       6438.9900       1.3693700
       6440.4600       1.3778480
       6441.9300       1.3764740
       6443.4000       1.3968620
       6444.8700       1.3879100
       6446.3400       1.3874970
       6447.8100       1.4135570
       6449.2800       1.4102040
       6450.7500       1.4370880
       6452.2200       1.4472830
       6453.6900       1.4121890
       6455.1600       1.4137430
       6456.6300       1.4557180
       6458.1000       1.4422870
       6459.5700       1.4383150
       6461.0400       1.4847200
       6462.5100       1.4838410
       6463.9800       1.4126680
       6465.4500       1.4372930
       6466.9200       1.4573600
       6468.3900       1.4762920
       6469.8600       1.4649730
       6471.3300       1.4688350
       6472.8000       1.4773110
       6474.2700       1.4704760
       6475.7400       1.4920910
       6477.2100       1.4828380
       6478.6800       1.4663590
       6480.1500       1.4498380
       6481.6200       1.4806610
       6483.0900       1.4753920
       6484.5600       1.4936030
       6486.0300       1.4842220
       6487.5000       1.4425130
       6488.9700       1.4135650
       6490.4400       1.4176600
       6491.9100       1.4376440
       6493.3800       1.4380330
       6494.8500       1.4495320
       6496.3200       1.4683410
       6497.7900       1.4743310
       6499.2600       1.4687220
       6500.7300       1.4218690
       6502.2000       1.4500220
       6503.6700       1.4783500
       6505.1400       1.4899340
       6506.6100       1.4844220
       6508.0800       1.4692380
       6509.5500       1.4691940
       6511.0200       1.4370590
       6512.4900       1.4215030
       6513.9600       1.4207610
       6515.4300       1.4382670
       6516.9000       1.4287930
       6518.3700       1.4298730
       6519.8400       1.4720560
       6521.3100       1.4486580
       6522.7800       1.3756630
       6524.2500       1.3669200
       6525.7200       1.4034540
       6527.1900       1.4133970
       6528.6600       1.4009980
       6530.1300       1.3742800
       6531.6000       1.3744660
       6533.0700       1.3829790
       6534.5400       1.3617400
       6536.0100       1.3623090
       6537.4800       1.3861300
       6538.9500       1.3513520
       6540.4200       1.3364190
       6541.8900       1.4092710
       6543.3600       1.3951720
       6544.8300       1.3466600
       6546.3000       1.3403750
       6547.7700       1.4042800
       6549.2400       1.4078640
       6550.7100       1.3772560
       6552.1800       1.4235290
       6553.6500       1.4370860
       6555.1200       1.4596460
       6556.5900       1.4571390
       6558.0600       1.4087430
       6559.5300       1.3750770
       6561.0000       1.3546140
       6562.4700       1.4224620
       6563.9400       1.4592560
       6565.4100       1.3941110
       6566.8800       1.3867510
       6568.3500       1.4101130
       6569.8200       1.4161920
       6571.2900       1.4248320
       6572.7600       1.3935370
       6574.2300       1.4096510
       6575.7000       1.4217320
       6577.1700       1.4625550
       6578.6400       1.4837940
       6580.1100       1.4924090
       6581.5800       1.4758960
       6583.0500       1.3947790
       6584.5200       1.3522040
       6585.9900       1.3810890
       6587.4600       1.4279050
       6588.9300       1.4617090
       6590.4000       1.5229490
       6591.8700       1.6063630
       6593.3400       1.6288350
       6594.8100       1.5915990
       6596.2799       1.4775170
       6597.7500       1.3718730
       6599.2200       1.3769910
       6600.6900       1.3813570
       6602.1600       1.3411360
       6603.6300       1.3545930
       6605.1000       1.3767350
       6606.5700       1.3489450
       6608.0400       1.3032000
       6609.5100       1.3289370
       6610.9800       1.4091850
       6612.4500       1.3933480
       6613.9200       1.3798770
       6615.3900       1.3940150
       6616.8600       1.3775620
       6618.3300       1.3434890
       6619.8000       1.3330160
       6621.2700       1.3415870
       6622.7400       1.3172500
       6624.2100       1.3045630
       6625.6800       1.3137090
       6627.1500       1.3614610
       6628.6200       1.3599550
       6630.0900       1.3108650
       6631.5600       1.3087880
       6633.0300       1.2915450
       6634.5000       1.2634430
       6635.9700       1.2879470
       6637.4400       1.2862190
       6638.9100       1.2463720
       6640.3800       1.2600530
       6641.8500       1.2754620
       6643.3200       1.2501550
       6644.7900       1.2444380
       6646.2600       1.2335950
       6647.7300       1.2111440
       6649.2000       1.2254960
       6650.6700       1.2770980
       6652.1400       1.2819690
       6653.6100       1.2675310
       6655.0800       1.2289810
       6656.5500       1.2133260
       6658.0200       1.2520820
       6659.4900       1.2759300
       6660.9600       1.2541130
       6662.4300       1.2314820
       6663.9000       1.2407210
       6665.3700       1.2459410
       6666.8400       1.2574340
       6668.3100       1.2777530
       6669.7800       1.2647500
       6671.2500       1.2286320
       6672.7200       1.2000320
       6674.1900       1.2007850
       6675.6600       1.2273850
       6677.1300       1.2722950
       6678.6000       1.2638990
       6680.0700       1.2078910
       6681.5400       1.2089570
       6683.0100       1.2074240
       6684.4800       1.2181300
       6685.9500       1.2318370
       6687.4200       1.1949110
       6688.8900       1.1528590
       6690.3600       1.1644170
       6691.8300       1.2090230
       6693.3000       1.2316740
       6694.7700       1.1688440
       6696.2400       1.1496200
       6697.7100       1.1836500
       6699.1800       1.1613690
       6700.6500       1.1744340
       6702.1200       1.1993750
       6703.5900       1.1996940
       6705.0600       1.1569020
       6706.5300       1.1513890
       6708.0000       1.1712920
       6709.4700       1.1388550
       6710.9400       1.1079490
       6712.4100       1.1048360
       6713.8800       1.1136440
       6715.3500       1.0986180
       6716.8200       1.0611070
       6718.2900       1.0827690
       6719.7600       1.0486520
       6721.2300       1.0612620
       6722.7000       1.0913880
       6724.1700       1.0713450
       6725.6400       1.0848960
       6727.1100       1.0745900
       6728.5800       1.0577170
       6730.0500       1.0805460
       6731.5200       1.0928960
       6732.9900       1.0950880
       6734.4600       1.0547460
       6735.9300       1.0193620
       6737.4000       1.0822620
       6738.8700       1.0971670
       6740.3400       1.0403710
       6741.8100       1.0392640
       6743.2800       1.0697140
       6744.7500       1.0669910
       6746.2200       1.0778400
       6747.6900       1.0633050
       6749.1600       1.0179390
       6750.6300       1.0096440
       6752.1000       1.0257880
       6753.5700       1.0114460
       6755.0400      0.99378790
       6756.5100       1.0101480
       6757.9800       1.0144940
       6759.4500       1.0152060
       6760.9200       1.0401720
       6762.3900       1.0383880
       6763.8600       1.0005930
       6765.3300       1.0329660
       6766.8000      0.99546160
       6768.2700      0.94028040
       6769.7400      0.97735400
       6771.2100       1.0081750
       6772.6800       1.0069190
       6774.1500       1.0087060
       6775.6200       1.0012410
       6777.0900       1.0062430
       6778.5600      0.98503430
       6780.0300      0.98596500
       6781.5000      0.99691680
       6782.9700      0.98537950
       6784.4400      0.98993650
       6785.9100       1.0027710
       6787.3800       1.0124220
       6788.8500       1.0137760
       6790.3200       1.0187350
       6791.7900       1.0168740
       6793.2600       1.0219240
       6794.7300       1.0389430
       6796.2000       1.0522610
       6797.6700       1.0132460
       6799.1400      0.95333420
       6800.6100      0.97030740
       6802.0800       1.0169320
       6803.5500       1.0033140
       6805.0200       1.0181560
       6806.4900       1.0133130
       6807.9600      0.98598790
       6809.4300      0.99232950
       6810.9000       1.0081360
       6812.3700       1.0355350
       6813.8400       1.0383300
       6815.3100       1.0146210
       6816.7800       1.0211770
       6818.2500       1.0403260
       6819.7200       1.0120350
       6821.1900      0.97921410
       6822.6600       1.0118720
       6824.1300       1.0355920
       6825.6000       1.0100300
       6827.0700       1.0065940
       6828.5400       1.0352770
       6830.0100       1.0403660
       6831.4800       1.0000210
       6832.9500      0.97678510
       6834.4200       1.0087160
       6835.8900       1.0346740
       6837.3600       1.0192450
       6838.8300       1.0046140
       6840.3000      0.99634910
       6841.7700      0.99076220
       6843.2400      0.98943060
       6844.7100      0.99289710
       6846.1800      0.98620950
       6847.6500      0.94138070
       6849.1200      0.92706440
       6850.5900      0.95281550
       6852.0600      0.96010770
       6853.5300      0.96567420
       6855.0000      0.94706940
       6856.4700      0.91366640
       6857.9400      0.91840270
       6859.4100      0.93029740
       6860.8800      0.93739120
       6862.3500      0.92174130
       6863.8200      0.88783620
       6865.2900      0.90108450
       6866.7600      0.91796250
       6868.2300      0.90263950
       6869.7000      0.88410170
       6871.1700      0.87820490
       6872.6400      0.93585850
       6874.1100      0.97310230
       6875.5800      0.92954270
       6877.0500      0.89130430
       6878.5200      0.87388280
       6879.9900      0.86571790
       6881.4600      0.85861640
       6882.9300      0.85178360
       6884.4000      0.82499170
       6885.8700      0.80202880
       6887.3400      0.82982490
       6888.8100      0.85064550
       6890.2800      0.81340600
       6891.7500      0.80089270
       6893.2200      0.83127030
       6894.6900      0.84543010
       6896.1600      0.82951340
       6897.6300      0.85759850
       6899.1000      0.88311090
       6900.5700      0.84159210
       6902.0400      0.81234320
       6903.5100      0.87264030
       6904.9800      0.89096590
       6906.4500      0.85499230
       6907.9200      0.84349910
       6909.3899      0.78769640
       6910.8600      0.76277230
       6912.3300      0.82681860
       6913.8000      0.82234320
       6915.2700      0.78273340
       6916.7400      0.78191700
       6918.2100      0.80363760
       6919.6800      0.84450300
       6921.1500      0.83648460
       6922.6200      0.80361970
       6924.0900      0.81817000
       6925.5600      0.81010810
       6927.0300      0.78517150
       6928.5000      0.80431400
       6929.9700      0.84243640
       6931.4400      0.84132900
       6932.9100      0.84542240
       6934.3800      0.86010460
       6935.8500      0.86132970
       6937.3200      0.88697920
       6938.7900      0.91816990
       6940.2600      0.91824290
       6941.7300      0.90656770
       6943.2000      0.91329900
       6944.6700      0.92424970
       6946.1400      0.93573300
       6947.6100      0.94301450
       6949.0800      0.92196510
       6950.5500      0.92003020
       6952.0200      0.93059250
       6953.4900      0.90702500
       6954.9600      0.90606110
       6956.4300      0.92872350
       6957.9000      0.93110480
       6959.3700      0.93998380
       6960.8400      0.93811560
       6962.3100      0.92864040
       6963.7800      0.92268370
       6965.2500      0.90035750
       6966.7200      0.91408630
       6968.1900      0.94227060
       6969.6600      0.97439570
       6971.1300       1.0025750
       6972.6000       1.0074580
       6974.0700      0.97585850
       6975.5400      0.97646260
       6977.0100      0.99513350
       6978.4800       1.0112400
       6979.9500       1.0178560
       6981.4200       1.0162550
       6982.8900       1.0116860
       6984.3600       1.0079890
       6985.8300       1.0240680
       6987.3000       1.0113480
       6988.7700      0.98191650
       6990.2400      0.96460270
       6991.7100       1.0044560
       6993.1800       1.0131390
       6994.6500       1.0129730
       6996.1200       1.0441380
       6997.5900       1.0543210
       6999.0600       1.0471910
       7000.5300       1.0210240
       7002.0000       1.0114270
       7003.4700       1.0366270
       7004.9400       1.0682860
       7006.4100       1.0592410
       7007.8800       1.0499710
       7009.3500       1.0516430
       7010.8200       1.0537990
       7012.2900       1.0057790
       7013.7600       1.0892670
       7015.2300       1.2482180
       7016.7000       1.1860410
       7018.1700       1.0905270
       7019.6400       1.0722860
       7021.1100       1.0722500
       7022.5800       1.0735720
       7024.0500       1.0478210
       7025.5200       1.0207370
       7026.9900       1.0440000
       7028.4600       1.0543580
       7029.9300       1.0401900
       7031.4000       1.0712950
       7032.8700       1.0576470
       7034.3400       1.0314270
       7035.8100       1.0406040
       7037.2800       1.0513430
       7038.7500       1.0718500
       7040.2200       1.0733370
       7041.6900       1.0269320
       7043.1600       1.0231710
       7044.6300       1.0391660
       7046.1000       1.0144750
       7047.5700      0.99106310
       7049.0400      0.97112800
       7050.5100      0.98138060
       7051.9800       1.0153430
       7053.4500       1.0472300
       7054.9200       1.0223440
       7056.3900      0.98916730
       7057.8600       1.0304120
       7059.3300       1.0183170
       7060.8000      0.98726260
       7062.2700      0.99844380
       7063.7400      0.98892590
       7065.2100       1.0033430
       7066.6800      0.99643830
       7068.1500      0.99893860
       7069.6200       1.0167200
       7071.0900       1.0203220
       7072.5600       1.0135320
       7074.0300      0.99935300
       7075.5000      0.98284690
       7076.9700       1.0121520
       7078.4400       1.0388060
       7079.9100      0.98926970
       7081.3800      0.96598960
       7082.8500      0.99285770
       7084.3200      0.99628620
       7085.7900      0.95911990
       7087.2600      0.95904940
       7088.7300      0.98468930
       7090.2000      0.97009180
       7091.6700      0.94377010
       7093.1400      0.98677030
       7094.6100       1.0399500
       7096.0800      0.98467210
       7097.5500      0.93088990
       7099.0200      0.95920380
       7100.4900      0.98026630
       7101.9600      0.94833470
       7103.4300      0.94302190
       7104.9000      0.96836450
       7106.3700      0.96188460
       7107.8400      0.94251350
       7109.3100      0.93302120
       7110.7800      0.95530780
       7112.2500      0.98983580
       7113.7200      0.98095490
       7115.1900      0.99423580
       7116.6600       1.0072220
       7118.1300      0.97206000
       7119.6000      0.96871910
       7121.0700      0.96666070
       7122.5400      0.96548440
       7124.0100      0.95716920
       7125.4800      0.94131760
       7126.9500      0.96905800
       7128.4200      0.98419600
       7129.8900      0.97978950
       7131.3600      0.96916850
       7132.8300      0.96522950
       7134.3000      0.97917090
       7135.7700      0.99409190
       7137.2400       1.0064680
       7138.7100       1.0054530
       7140.1800      0.99444230
       7141.6500      0.96231270
       7143.1200      0.98557930
       7144.5900       1.0351480
       7146.0600      0.99928530
       7147.5300      0.97551040
       7149.0000       1.0114110
       7150.4700       1.0066390
       7151.9400      0.98314520
       7153.4100      0.97464780
       7154.8800      0.97422550
       7156.3500      0.99162920
       7157.8200      0.99027900
       7159.2900      0.96824630
       7160.7600      0.98103870
       7162.2300       1.0244760
       7163.7000       1.0049040
       7165.1700      0.97303430
       7166.6400       1.0181880
       7168.1100       1.0606300
       7169.5800       1.0674390
       7171.0500       1.0867390
       7172.5200       1.1111440
       7173.9900       1.1055920
       7175.4600       1.1111370
       7176.9300       1.1485310
       7178.4000       1.1199290
       7179.8700       1.0675610
       7181.3400       1.0871290
       7182.8100       1.1382850
       7184.2800       1.1593990
       7185.7500       1.1426910
       7187.2200       1.1267940
       7188.6900       1.1144840
       7190.1600       1.1079230
       7191.6300       1.1432080
       7193.1000       1.1599840
       7194.5700       1.1077450
       7196.0400       1.1165410
       7197.5100       1.1789540
       7198.9800       1.1853990
       7200.4500       1.1564930
       7201.9200       1.1591420
       7203.3900       1.1947530
       7204.8600       1.1676000
       7206.3300       1.1022970
       7207.8000       1.0867250
       7209.2700       1.1049880
       7210.7400       1.1083510
       7212.2100       1.0942500
       7213.6800       1.0806190
       7215.1500       1.0683890
       7216.6200       1.0773080
       7218.0900       1.0848330
       7219.5600       1.0697560
       7221.0300       1.0594130
       7222.4999       1.0747340
       7223.9700       1.1030560
       7225.4400       1.1076000
       7226.9100       1.1097120
       7228.3800       1.1029260
       7229.8500       1.0733040
       7231.3200       1.0944260
       7232.7900       1.1680830
       7234.2600       1.1853810
       7235.7300       1.1637790
       7237.2000       1.1763900
       7238.6700       1.1589490
       7240.1400       1.1585190
       7241.6100       1.2063460
       7243.0800       1.2353180
       7244.5500       1.2273130
       7246.0200       1.2277260
       7247.4900       1.2002510
       7248.9600       1.1902880
       7250.4300       1.2453010
       7251.9000       1.2486170
       7253.3700       1.2467360
       7254.8400       1.2685910
       7256.3100       1.2449300
       7257.7800       1.2001580
       7259.2500       1.2018230
       7260.7200       1.2378620
       7262.1900       1.2525210
       7263.6600       1.2491170
       7265.1300       1.2395160
       7266.6000       1.2063540
       7268.0700       1.1676540
       7269.5400       1.1857340
       7271.0100       1.2486970
       7272.4800       1.3082720
       7273.9500       1.3494300
       7275.4200       1.3684050
       7276.8900       1.3628540
       7278.3600       1.3508830
       7279.8300       1.3103300
       7281.3000       1.2817240
       7282.7700       1.2600690
       7284.2400       1.2591850
       7285.7100       1.3172560
       7287.1800       1.3449860
       7288.6500       1.3720820
       7290.1200       1.3552230
       7291.5900       1.2990300
       7293.0600       1.2919370
       7294.5300       1.2954620
       7296.0000       1.3019020
       7297.4700       1.3313700
       7298.9400       1.3450500
       7300.4100       1.3647170
       7301.8800       1.3797060
       7303.3500       1.3840470
       7304.8200       1.3717940
       7306.2900       1.3659890
       7307.7600       1.3329660
       7309.2300       1.3223070
       7310.7000       1.3725690
       7312.1700       1.3749030
       7313.6400       1.3676490
       7315.1100       1.3945180
       7316.5800       1.4111470
       7318.0500       1.3933190
       7319.5200       1.3427260
       7320.9900       1.3211650
       7322.4600       1.3252890
       7323.9300       1.3123180
       7325.4000       1.3266440
       7326.8700       1.3549240
       7328.3400       1.3510260
       7329.8100       1.3214890
       7331.2800       1.2900090
       7332.7500       1.2979030
       7334.2200       1.3261670
       7335.6900       1.2978080
       7337.1600       1.2805200
       7338.6300       1.2882030
       7340.1000       1.2910070
       7341.5700       1.2473170
       7343.0400       1.2591300
       7344.5100       1.3016590
       7345.9800       1.2728090
       7347.4500       1.2876300
       7348.9200       1.2998840
       7350.3900       1.2916160
       7351.8600       1.3013670
       7353.3300       1.3062750
       7354.8000       1.3057650
       7356.2700       1.3188970
       7357.7400       1.2758750
       7359.2100       1.2824100
       7360.6800       1.3237800
       7362.1500       1.3334250
       7363.6200       1.3278370
       7365.0900       1.2696120
       7366.5600       1.2628320
       7368.0300       1.2997110
       7369.5000       1.2771820
       7370.9700       1.2147280
       7372.4400       1.1891610
       7373.9100       1.2086950
       7375.3800       1.1907250
       7376.8500       1.1475280
       7378.3200       1.1808710
       7379.7900       1.1980170
       7381.2600       1.2057880
       7382.7300       1.2460240
       7384.2000       1.2123270
       7385.6700       1.1449780
       7387.1400       1.1453560
       7388.6100       1.1454720
       7390.0800       1.1955500
       7391.5500       1.2269750
       7393.0200       1.1714280
       7394.4900       1.1302580
       7395.9600       1.1229160
       7397.4300       1.1376460
       7398.9000       1.1565540
       7400.3700       1.1837210
       7401.8400       1.1968430
       7403.3100       1.1982280
       7404.7800       1.1973450
       7406.2500       1.1828830
       7407.7200       1.1870210
       7409.1900       1.2185700
       7410.6600       1.2019860
       7412.1300       1.1924100
       7413.6000       1.1403910
       7415.0700       1.0953090
       7416.5400       1.0941100
