Units are: observed wavelength (Ang), observed flux (10^-15 erg/s/cm^2/Ang)
       3321.0000     0.045843321
       3322.9500     0.051268451
       3324.9000     0.069224061
       3326.8500     0.062016491
       3328.8000     0.054226221
       3330.7500     0.043378001
       3332.7000     0.051869031
       3334.6500     0.062751641
       3336.6000     0.079658251
       3338.5500     0.072152921
       3340.5000     0.074948301
       3342.4500     0.065774821
       3344.4000     0.069731281
       3346.3500     0.073627541
       3348.3000     0.074430411
       3350.2500     0.081389651
       3352.2000     0.069753881
       3354.1500     0.075413011
       3356.1000     0.080884781
       3358.0500     0.062937341
       3360.0000     0.059411261
       3361.9500     0.070930111
       3363.9000     0.071001771
       3365.8500     0.080592191
       3367.8000     0.086066261
       3369.7500     0.075751611
       3371.7000     0.074225921
       3373.6500     0.085737021
       3375.6000     0.081942861
       3377.5500     0.067264931
       3379.5000     0.069754851
       3381.4500     0.076386421
       3383.4000     0.076963721
       3385.3500     0.079682431
       3387.3000     0.078800491
       3389.2500     0.094637501
       3391.2000     0.098101431
       3393.1500     0.084766661
       3395.1000     0.082325111
       3397.0500     0.080305641
       3399.0000     0.077416931
       3400.9500     0.074242061
       3402.9000     0.083802081
       3404.8500     0.078621641
       3406.8000     0.056016601
       3408.7500     0.063035481
       3410.7000     0.083019451
       3412.6500     0.087248651
       3414.6000     0.087469041
       3416.5500     0.082289471
       3418.5000     0.081553671
       3420.4501     0.069023031
       3422.4000     0.067404331
       3424.3500     0.082391251
       3426.3000      0.10027640
       3428.2500      0.10051830
       3430.2000     0.097838411
       3432.1500      0.10395980
       3434.1000     0.089051911
       3436.0500     0.090701061
       3438.0000      0.11152730
       3439.9500     0.098162251
       3441.9000     0.075375061
       3443.8500     0.099092141
       3445.8000      0.11192660
       3447.7500      0.10155240
       3449.7000     0.096018301
       3451.6500     0.086940861
       3453.6000     0.094728491
       3455.5500     0.095150211
       3457.5000     0.095829571
       3459.4500      0.11788860
       3461.4000      0.12194110
       3463.3500      0.11001220
       3465.3000      0.11089250
       3467.2500      0.10626310
       3469.2000      0.10900800
       3471.1500      0.11134030
       3473.1000      0.11133740
       3475.0500      0.10892970
       3477.0000     0.097520391
       3478.9500      0.10385390
       3480.9000      0.10333650
       3482.8500      0.11195660
       3484.8000      0.10368030
       3486.7500     0.085601181
       3488.7000      0.10286470
       3490.6500     0.096347051
       3492.6000     0.094033311
       3494.5500     0.082768181
       3496.5000     0.087750421
       3498.4500     0.098990301
       3500.4000     0.089880801
       3502.3500     0.085268371
       3504.3000     0.095083751
       3506.2500     0.080524361
       3508.2000     0.082384651
       3510.1500     0.099244431
       3512.1000     0.088587991
       3514.0500     0.078046551
       3516.0000     0.092588161
       3517.9500     0.083697181
       3519.9000     0.071440961
       3521.8500     0.082182441
       3523.8000     0.076853771
       3525.7499     0.078830401
       3527.7000     0.073371601
       3529.6500     0.075130961
       3531.6000     0.083739891
       3533.5500     0.098629331
       3535.5000     0.097398931
       3537.4500     0.093436631
       3539.4000     0.098938171
       3541.3500     0.097897711
       3543.3000     0.086448821
       3545.2500     0.082034181
       3547.2000     0.092140921
       3549.1500      0.10619100
       3551.1000      0.10430430
       3553.0500     0.093547001
       3555.0000     0.091957771
       3556.9500     0.098693691
       3558.9000      0.10061380
       3560.8500      0.11137130
       3562.8000      0.11907710
       3564.7500      0.11854950
       3566.7000      0.11454830
       3568.6500      0.10126090
       3570.6000      0.10361830
       3572.5500      0.10657620
       3574.5000      0.10592400
       3576.4500      0.11370190
       3578.4000      0.11677770
       3580.3500      0.10666030
       3582.3000      0.10534410
       3584.2500      0.11100250
       3586.2000      0.10821840
       3588.1500      0.11299200
       3590.1000      0.11968070
       3592.0500      0.11285480
       3594.0000      0.11293590
       3595.9500      0.12393040
       3597.9000      0.11689270
       3599.8500      0.10221270
       3601.8000      0.10998040
       3603.7500      0.11690590
       3605.7000      0.11449920
       3607.6500      0.11118700
       3609.6000      0.10758850
       3611.5500      0.11967500
       3613.5000      0.12132710
       3615.4500      0.12182410
       3617.4000      0.12089360
       3619.3500      0.11619660
       3621.3000      0.11845350
       3623.2500      0.10737880
       3625.2000     0.094745171
       3627.1500      0.10702000
       3629.1000      0.11115190
       3631.0500     0.095317851
       3633.0000     0.091214071
       3634.9500      0.10602720
       3636.9000      0.11508580
       3638.8500      0.11728850
       3640.8000      0.11384890
       3642.7500      0.10426970
       3644.7000      0.10429170
       3646.6500      0.10513660
       3648.6000      0.10358390
       3650.5500      0.11401760
       3652.5000      0.11724120
       3654.4500      0.11661350
       3656.4000      0.12245550
       3658.3500      0.12786510
       3660.3000      0.12838950
       3662.2500      0.11666450
       3664.2000      0.11658150
       3666.1500      0.12540420
       3668.1000      0.11910220
       3670.0500      0.11362770
       3672.0000      0.12035420
       3673.9500      0.13393770
       3675.9000      0.13558630
       3677.8500      0.13671060
       3679.8000      0.13550730
       3681.7500      0.13881550
       3683.7000      0.13250230
       3685.6500      0.13823050
       3687.6000      0.14626950
       3689.5500      0.14193530
       3691.5000      0.15170170
       3693.4500      0.15088640
       3695.4000      0.14190820
       3697.3500      0.13925400
       3699.3000      0.14432390
       3701.2500      0.15697690
       3703.2000      0.15714790
       3705.1500      0.15472950
       3707.1000      0.16217060
       3709.0500      0.16384270
       3711.0000      0.16443050
       3712.9500      0.16181290
       3714.9000      0.17132690
       3716.8500      0.16496540
       3718.8000      0.14982040
       3720.7500      0.16401700
       3722.7000      0.16623650
       3724.6500      0.15762820
       3726.6000      0.16596080
       3728.5500      0.17589820
       3730.5000      0.16834710
       3732.4500      0.15826850
       3734.4000      0.15410570
       3736.3500      0.15539590
       3738.3000      0.16100520
       3740.2500      0.15739080
       3742.2000      0.16778140
       3744.1500      0.20713800
       3746.1000      0.20881580
       3748.0500      0.17721760
       3750.0000      0.16778320
       3751.9500      0.16419440
       3753.9000      0.16038150
       3755.8500      0.15983630
       3757.8000      0.15495950
       3759.7500      0.15012420
       3761.7000      0.15547490
       3763.6500      0.14658950
       3765.6000      0.13523510
       3767.5500      0.14632230
       3769.5000      0.13818440
       3771.4500      0.12877210
       3773.4000      0.14451410
       3775.3500      0.14420050
       3777.3000      0.12848970
       3779.2500      0.12142950
       3781.2000      0.11895340
       3783.1500      0.12297110
       3785.1000      0.12443650
       3787.0500      0.11751100
       3789.0000      0.11541140
       3790.9500      0.10780250
       3792.9000     0.094062261
       3794.8500     0.094558961
       3796.8000     0.098877421
       3798.7500     0.096419331
       3800.7000      0.10114960
       3802.6500      0.10167980
       3804.6000     0.090318331
       3806.5500     0.088494411
       3808.5000     0.090943741
       3810.4500     0.084889171
       3812.4000     0.087256881
       3814.3500     0.090472301
       3816.3000     0.084175451
       3818.2500     0.077828061
       3820.2000     0.076975891
       3822.1500     0.073783251
       3824.1000     0.065343691
       3826.0500     0.071930101
       3828.0000     0.076409531
       3829.9500     0.067839171
       3831.9000     0.062869421
       3833.8500     0.053971931
       3835.8000     0.052441331
       3837.7500     0.055691871
       3839.7000     0.056752431
       3841.6500     0.061507731
       3843.6000     0.057114541
       3845.5500     0.061395381
       3847.5000     0.069928161
       3849.4500     0.062542611
       3851.4000     0.059568041
       3853.3500     0.068715391
       3855.3000     0.064149131
       3857.2500     0.060761651
       3859.2000     0.062308381
       3861.1500     0.066888581
       3863.1000     0.073908621
       3865.0500     0.072652081
       3867.0000     0.077186911
       3868.9500     0.076412521
       3870.9000     0.084533241
       3872.8500     0.091526041
       3874.8000     0.086813521
       3876.7500     0.095944751
       3878.7000      0.10260410
       3880.6500      0.10880590
       3882.6000      0.11184570
       3884.5500      0.11849600
       3886.5000      0.13155750
       3888.4500      0.14232790
       3890.4000      0.14198280
       3892.3500      0.14857120
       3894.3000      0.14921000
       3896.2500      0.14138990
       3898.2000      0.15884490
       3900.1500      0.17692320
       3902.1000      0.18422380
       3904.0500      0.19118380
       3906.0000      0.19718650
       3907.9500      0.20484550
       3909.9000      0.22382710
       3911.8500      0.23873460
       3913.8000      0.24363070
       3915.7500      0.25010230
       3917.7000      0.26063040
       3919.6500      0.26970730
       3921.6000      0.27299730
       3923.5500      0.28580710
       3925.5000      0.29325140
       3927.4500      0.29295080
       3929.4000      0.30608330
       3931.3500      0.29850490
       3933.3000      0.30336410
       3935.2500      0.31827630
       3937.2000      0.32369070
       3939.1500      0.33798241
       3941.1000      0.35716961
       3943.0500      0.34727091
       3945.0000      0.34593191
       3946.9500      0.36016741
       3948.9000      0.35030351
       3950.8500      0.32872220
       3952.8000      0.33138870
       3954.7500      0.34947651
       3956.7000      0.35906251
       3958.6500      0.36247361
       3960.6000      0.37156361
       3962.5500      0.35933631
       3964.5000      0.36676211
       3966.4500      0.37621191
       3968.4000      0.36365451
       3970.3500      0.35826801
       3972.3000      0.36924781
       3974.2500      0.36779221
       3976.2000      0.36604811
       3978.1500      0.37732111
       3980.1000      0.38447771
       3982.0500      0.38223301
       3984.0000      0.37937181
       3985.9500      0.38238761
       3987.9000      0.38341321
       3989.8500      0.38665651
       3991.8000      0.39924021
       3993.7500      0.40887191
       3995.7000      0.41402231
       3997.6500      0.39651971
       3999.6000      0.38779111
       4001.5500      0.40693961
       4003.5000      0.41401771
       4005.4500      0.40281411
       4007.4000      0.40332771
       4009.3500      0.40873201
       4011.3000      0.40812171
       4013.2500      0.39904471
       4015.2000      0.40974661
       4017.1500      0.40621641
       4019.1000      0.40216421
       4021.0500      0.42117651
       4023.0000      0.41753081
       4024.9500      0.40582331
       4026.9000      0.39597361
       4028.8500      0.40737391
       4030.8000      0.41209431
       4032.7500      0.40286341
       4034.7000      0.39622061
       4036.6500      0.41012671
       4038.6000      0.42103101
       4040.5500      0.41560841
       4042.5000      0.42838531
       4044.4500      0.43451321
       4046.4000      0.41931431
       4048.3500      0.42680941
       4050.3000      0.43819401
       4052.2500      0.43798421
       4054.2000      0.42855161
       4056.1500      0.42236291
       4058.1000      0.42912241
       4060.0500      0.44486481
       4062.0000      0.43981691
       4063.9500      0.43348721
       4065.9000      0.40884741
       4067.8500      0.42573881
       4069.8000      0.43010761
       4071.7500      0.42154311
       4073.7000      0.39858451
       4075.6500      0.39028371
       4077.6000      0.37912891
       4079.5500      0.38829321
       4081.5000      0.38533341
       4083.4500      0.37747101
       4085.4000      0.36532301
       4087.3500      0.35606381
       4089.3000      0.34269911
       4091.2500      0.32389220
       4093.2000      0.32538440
       4095.1500      0.31651380
       4097.1000      0.30115990
       4099.0500      0.30167150
       4101.0000      0.30653520
       4102.9500      0.29909170
       4104.9000      0.29952690
       4106.8500      0.30068150
       4108.8000      0.30425760
       4110.7500      0.30033070
       4112.7000      0.29297980
       4114.6500      0.27997980
       4116.6000      0.27605980
       4118.5500      0.27994990
       4120.5000      0.27019620
       4122.4500      0.27499170
       4124.4000      0.27170250
       4126.3500      0.27999840
       4128.3000      0.27334370
       4130.2500      0.27099320
       4132.2000      0.26854620
       4134.1500      0.27098570
       4136.1000      0.26364040
       4138.0500      0.25552520
       4140.0000      0.26125410
       4141.9500      0.27245240
       4143.9000      0.27017020
       4145.8500      0.26318880
       4147.8000      0.26440510
       4149.7500      0.26061640
       4151.7000      0.25731250
       4153.6500      0.25832100
       4155.6000      0.26132930
       4157.5500      0.26575330
       4159.5000      0.25676800
       4161.4500      0.25574320
       4163.4000      0.25906510
       4165.3500      0.25396070
       4167.3000      0.25484390
       4169.2500      0.24237980
       4171.2000      0.22065110
       4173.1500      0.21730680
       4175.1000      0.22952960
       4177.0500      0.23312470
       4179.0000      0.22857770
       4180.9500      0.22221260
       4182.9000      0.20684800
       4184.8500      0.19463130
       4186.8000      0.19186730
       4188.7500      0.19344740
       4190.7000      0.19285200
       4192.6500      0.19441680
       4194.6000      0.20238900
       4196.5500      0.19311640
       4198.5000      0.18943020
       4200.4500      0.19953820
       4202.4000      0.19487670
       4204.3500      0.19886210
       4206.3000      0.20454740
       4208.2500      0.20862320
       4210.2000      0.21159530
       4212.1500      0.22184310
       4214.1000      0.21897320
       4216.0500      0.21404420
       4218.0000      0.21826420
       4219.9500      0.22441080
       4221.9000      0.22821630
       4223.8500      0.22692430
       4225.8000      0.23396670
       4227.7500      0.22299860
       4229.7000      0.22707920
       4231.6500      0.23951940
       4233.6000      0.23913060
       4235.5500      0.23541730
       4237.5000      0.23403870
       4239.4500      0.24564200
       4241.4000      0.24734620
       4243.3500      0.24908060
       4245.3000      0.24177340
       4247.2500      0.23712890
       4249.2000      0.24061680
       4251.1500      0.25316820
       4253.1000      0.25268030
       4255.0500      0.24480740
       4257.0000      0.24912880
       4258.9500      0.25818970
       4260.9000      0.25966080
       4262.8500      0.26191090
       4264.8000      0.25623900
       4266.7500      0.26765280
       4268.7000      0.26675630
       4270.6500      0.26347940
       4272.6000      0.26206400
       4274.5500      0.27052710
       4276.5000      0.28132390
       4278.4500      0.27771940
       4280.4000      0.27926920
       4282.3500      0.27522040
       4284.3000      0.28331680
       4286.2500      0.28622620
       4288.2000      0.27080860
       4290.1500      0.27053030
       4292.1000      0.28156360
       4294.0500      0.28638230
       4296.0000      0.28487520
       4297.9500      0.26967770
       4299.9000      0.27442120
       4301.8500      0.28811350
       4303.8000      0.29152260
       4305.7500      0.28896650
       4307.7000      0.27435370
       4309.6500      0.28439310
       4311.6000      0.27338770
       4313.5500      0.29284190
       4315.5000      0.29078980
       4317.4500      0.29577450
       4319.4000      0.28038830
       4321.3500      0.29458710
       4323.3000      0.28805240
       4325.2500      0.29151130
       4327.2000      0.29880520
       4329.1500      0.29521760
       4331.1000      0.29434540
       4333.0500      0.28909830
       4335.0000      0.29195260
       4336.9500      0.28415070
       4338.9000      0.27917670
       4340.8500      0.28541900
       4342.8000      0.28437970
       4344.7500      0.29019000
       4346.7000      0.28911400
       4348.6500      0.28778610
       4350.6000      0.29459660
       4352.5500      0.28246600
       4354.5001      0.28487100
       4356.4500      0.30211970
       4358.4000      0.30439440
       4360.3500      0.30061760
       4362.3000      0.29516550
       4364.2500      0.29670620
       4366.2000      0.28740630
       4368.1500      0.28653930
       4370.1000      0.30391010
       4372.0500      0.31152440
       4374.0000      0.31549070
       4375.9500      0.31210490
       4377.9000      0.31104280
       4379.8500      0.29717610
       4381.8000      0.30237410
       4383.7500      0.32129730
       4385.7000      0.32038580
       4387.6500      0.31756940
       4389.6000      0.31920940
       4391.5500      0.31229810
       4393.5000      0.32355910
       4395.4500      0.32299120
       4397.4000      0.31525200
       4399.3500      0.30686250
       4401.3000      0.30268820
       4403.2500      0.30384660
       4405.2000      0.30569620
       4407.1500      0.30391220
       4409.1000      0.29927960
       4411.0500      0.29210260
       4413.0000      0.29640630
       4414.9500      0.30331480
       4416.9000      0.29555450
       4418.8500      0.28307550
       4420.8000      0.28382770
       4422.7500      0.29873790
       4424.7000      0.29808320
       4426.6500      0.27827240
       4428.6000      0.28405370
       4430.5500      0.28764170
       4432.5000      0.27324320
       4434.4500      0.27745060
       4436.4000      0.27828590
       4438.3500      0.27339500
       4440.3000      0.27196370
       4442.2500      0.26197090
       4444.2000      0.25120790
       4446.1500      0.25734620
       4448.1000      0.25488180
       4450.0500      0.25821300
       4452.0000      0.26309740
       4453.9500      0.25374660
       4455.9000      0.25893780
       4457.8500      0.26249600
       4459.7999      0.26142200
       4461.7500      0.26421320
       4463.7000      0.26766220
       4465.6500      0.25764580
       4467.6000      0.26050490
       4469.5500      0.26414180
       4471.5000      0.26049950
       4473.4500      0.26181440
       4475.4000      0.26806240
       4477.3500      0.27175770
       4479.3000      0.26660740
       4481.2500      0.26433730
       4483.2000      0.27552440
       4485.1500      0.27644620
       4487.1000      0.27795920
       4489.0500      0.28851930
       4491.0000      0.28217760
       4492.9500      0.28618440
       4494.9000      0.29969690
       4496.8500      0.29731960
       4498.8000      0.30222390
       4500.7500      0.32121390
       4502.7000      0.31962400
       4504.6500      0.31352300
       4506.6000      0.34379021
       4508.5500      0.35116161
       4510.5000      0.35888961
       4512.4500      0.37055641
       4514.4000      0.37766071
       4516.3500      0.39495621
       4518.3000      0.41275721
       4520.2500      0.43650481
       4522.2000      0.44702971
       4524.1500      0.45898061
       4526.1000      0.46907451
       4528.0500      0.47394381
       4530.0000      0.48015251
       4531.9500      0.48783801
       4533.9000      0.49336191
       4535.8500      0.49647251
       4537.8000      0.50201641
       4539.7500      0.50752881
       4541.7000      0.52824461
       4543.6500      0.52850231
       4545.6000      0.54307671
       4547.5500      0.54932281
       4549.5000      0.57449911
       4551.4500      0.57283641
       4553.4000      0.59156641
       4555.3500      0.58618831
       4557.3000      0.59304081
       4559.2500      0.61238501
       4561.2000      0.61148371
       4563.1500      0.60506341
       4565.1000      0.62037711
       4567.0500      0.61756161
       4569.0000      0.63589991
       4570.9500      0.63480831
       4572.9000      0.64824661
       4574.8500      0.65511751
       4576.8000      0.66477171
       4578.7500      0.65228741
       4580.7000      0.64729201
       4582.6500      0.66753311
       4584.6000      0.65560991
       4586.5500      0.67404231
       4588.5000      0.69220891
       4590.4500      0.68254201
       4592.4000      0.68118371
       4594.3500      0.69358131
       4596.3000      0.67180351
       4598.2500      0.67612311
       4600.2000      0.67531311
       4602.1500      0.66485421
       4604.1000      0.66723521
       4606.0500      0.65165481
       4608.0000      0.66476621
       4609.9500      0.66746811
       4611.9000      0.66859111
       4613.8500      0.65977861
       4615.8000      0.63309301
       4617.7500      0.64276501
       4619.7000      0.66660521
       4621.6500      0.65307961
       4623.6000      0.65460021
       4625.5500      0.66349841
       4627.5000      0.65247981
       4629.4500      0.64590251
       4631.4000      0.64527731
       4633.3500      0.64208511
       4635.3000      0.63718171
       4637.2500      0.62612581
       4639.2000      0.63059841
       4641.1500      0.65473881
       4643.1000      0.63897721
       4645.0500      0.62044681
       4647.0000      0.64138931
       4648.9500      0.64534291
       4650.9000      0.63225971
       4652.8500      0.62912661
       4654.8000      0.62571691
       4656.7500      0.60370831
       4658.7000      0.59770111
       4660.6500      0.59754491
       4662.6000      0.58994411
       4664.5500      0.58985761
       4666.5000      0.59932441
       4668.4500      0.62149691
       4670.4000      0.61045491
       4672.3500      0.59012051
       4674.3000      0.58638841
       4676.2500      0.59303731
       4678.2000      0.58399421
       4680.1500      0.57339741
       4682.1000      0.57778691
       4684.0500      0.58590821
       4686.0000      0.56553561
       4687.9500      0.54010481
       4689.9000      0.54852021
       4691.8500      0.54690861
       4693.8000      0.55072961
       4695.7500      0.56874881
       4697.7000      0.56855911
       4699.6500      0.55360691
       4701.6000      0.55017881
       4703.5500      0.54392771
       4705.5000      0.52732551
       4707.4500      0.53076081
       4709.4000      0.52785491
       4711.3500      0.52199151
       4713.3000      0.51016861
       4715.2500      0.51936511
       4717.2000      0.52041011
       4719.1500      0.51572241
       4721.1000      0.51784321
       4723.0500      0.50090031
       4725.0000      0.48542911
       4726.9500      0.46773361
       4728.9000      0.46029531
       4730.8500      0.47215591
       4732.8000      0.48487181
       4734.7500      0.48268891
       4736.7000      0.48657881
       4738.6500      0.48199591
       4740.6000      0.47703271
       4742.5500      0.47639041
       4744.5000      0.46142691
       4746.4500      0.45976081
       4748.4000      0.46842411
       4750.3500      0.45909251
       4752.3000      0.44897141
       4754.2500      0.44936891
       4756.2000      0.46664141
       4758.1500      0.46459441
       4760.1000      0.44892841
       4762.0500      0.43164131
       4764.0000      0.44731381
       4765.9500      0.46569661
       4767.9000      0.47109661
       4769.8500      0.46718631
       4771.8000      0.45750111
       4773.7500      0.46223951
       4775.7000      0.45241581
       4777.6500      0.44782761
       4779.6000      0.45413561
       4781.5500      0.45975631
       4783.5000      0.45612841
       4785.4500      0.45815761
       4787.4000      0.46604961
       4789.3500      0.46580431
       4791.3000      0.45199371
       4793.2500      0.44628921
       4795.2000      0.44479981
       4797.1500      0.43361581
       4799.1000      0.43430401
       4801.0500      0.42720701
       4803.0000      0.41326481
       4804.9500      0.40750431
       4806.9000      0.39659621
       4808.8500      0.39716871
       4810.8000      0.39166441
       4812.7500      0.40025661
       4814.7000      0.39584461
       4816.6500      0.38409671
       4818.6000      0.37886891
       4820.5500      0.36583781
       4822.5000      0.35311061
       4824.4500      0.35971031
       4826.4000      0.34704901
       4828.3500      0.34175961
       4830.3000      0.33767861
       4832.2500      0.33804711
       4834.2000      0.34272731
       4836.1500      0.34742061
       4838.1000      0.34332751
       4840.0500      0.34600951
       4842.0000      0.35792381
       4843.9500      0.36004561
       4845.9000      0.35373871
       4847.8500      0.36306191
       4849.8000      0.36427131
       4851.7500      0.36359831
       4853.7000      0.36875051
       4855.6500      0.36555141
       4857.6000      0.36070581
       4859.5500      0.36217691
       4861.5000      0.37209781
       4863.4500      0.37256271
       4865.4000      0.38019361
       4867.3500      0.39254771
       4869.3000      0.40631261
       4871.2500      0.40738271
       4873.2000      0.41609681
       4875.1500      0.42679701
       4877.1000      0.43882511
       4879.0500      0.44176341
       4881.0000      0.45793241
       4882.9500      0.48270941
       4884.9000      0.48727251
       4886.8500      0.48074431
       4888.8000      0.48932971
       4890.7500      0.50134531
       4892.7000      0.49725131
       4894.6500      0.48151711
       4896.6000      0.47720301
       4898.5500      0.48775891
       4900.5000      0.50366241
       4902.4500      0.49915071
       4904.4000      0.48948881
       4906.3500      0.48921821
       4908.3000      0.48702421
       4910.2500      0.47407441
       4912.2000      0.47234211
       4914.1500      0.47561921
       4916.1000      0.47198681
       4918.0500      0.45293861
       4920.0000      0.44468341
       4921.9500      0.43280401
       4923.9000      0.42163311
       4925.8500      0.42632891
       4927.8000      0.42404951
       4929.7500      0.41820661
       4931.7000      0.41601381
       4933.6500      0.40733821
       4935.6000      0.40389061
       4937.5500      0.40909771
       4939.5000      0.40480121
       4941.4500      0.39628401
       4943.4000      0.39646571
       4945.3500      0.40242121
       4947.3000      0.40698461
       4949.2500      0.39117301
       4951.2000      0.38994961
       4953.1500      0.40494191
       4955.1000      0.40352951
       4957.0500      0.41057671
       4959.0000      0.42450481
       4960.9500      0.42174881
       4962.9000      0.42191271
       4964.8500      0.42690571
       4966.8000      0.44176861
       4968.7500      0.46407181
       4970.7000      0.48535451
       4972.6500      0.49472371
       4974.6000      0.50260461
       4976.5500      0.50741791
       4978.5000      0.52914641
       4980.4500      0.57037171
       4982.4000      0.58671111
       4984.3500      0.58520491
       4986.3000      0.59327921
       4988.2500      0.59966561
       4990.2000      0.60267201
       4992.1500      0.60438221
       4994.1000      0.59520401
       4996.0500      0.60330371
       4998.0000      0.63577221
       4999.9500      0.64942671
       5001.9000      0.64561701
       5003.8500      0.65745171
       5005.8000      0.65812751
       5007.7500      0.64343571
       5009.7000      0.63582241
       5011.6500      0.61968571
       5013.6000      0.59900061
       5015.5500      0.60250091
       5017.5000      0.60726001
       5019.4500      0.59623121
       5021.4000      0.59245681
       5023.3500      0.58723131
       5025.3000      0.57179421
       5027.2500      0.59615861
       5029.2000      0.63057221
       5031.1500      0.60867601
       5033.1000      0.56141811
       5035.0500      0.50829631
       5037.0000      0.47631231
       5038.9500      0.47748591
       5040.9000      0.47142701
       5042.8500      0.45328201
       5044.8000      0.43655411
       5046.7500      0.42721361
       5048.7000      0.41321131
       5050.6500      0.39521801
       5052.6000      0.39150241
       5054.5500      0.38849461
       5056.5000      0.38186441
       5058.4500      0.37095151
       5060.4000      0.35876061
       5062.3500      0.35132581
       5064.3000      0.33633241
       5066.2500      0.33665571
       5068.2000      0.33772261
       5070.1500      0.32440420
       5072.1000      0.32666010
       5074.0500      0.32635900
       5076.0000      0.30605750
       5077.9500      0.30273300
       5079.9000      0.31574970
       5081.8500      0.31546880
       5083.8000      0.31473350
       5085.7500      0.31234570
       5087.7000      0.30753870
       5089.6500      0.30406760
       5091.6000      0.30771710
       5093.5500      0.31303360
       5095.5000      0.30951550
       5097.4500      0.30623820
       5099.4000      0.30981270
       5101.3500      0.31428170
       5103.3000      0.31353810
       5105.2500      0.31636670
       5107.2000      0.32483580
       5109.1500      0.34249721
       5111.1000      0.36091381
       5113.0500      0.36707041
       5115.0000      0.37722371
       5116.9500      0.39553551
       5118.9000      0.40732791
       5120.8500      0.41122371
       5122.8000      0.40259681
       5124.7500      0.41577741
       5126.7000      0.44426591
       5128.6500      0.43507281
       5130.6000      0.43935401
       5132.5500      0.45997631
       5134.5000      0.46059581
       5136.4500      0.46706041
       5138.4000      0.48373411
       5140.3500      0.49404651
       5142.3000      0.49803581
       5144.2500      0.49727121
       5146.2000      0.49796731
       5148.1500      0.50025161
       5150.1000      0.51009301
       5152.0500      0.52435221
       5154.0000      0.53847641
       5155.9500      0.55110131
       5157.9000      0.53911031
       5159.8500      0.54189911
       5161.8000      0.55619871
       5163.7500      0.56178091
       5165.7000      0.54974051
       5167.6500      0.54889151
       5169.6000      0.56528661
       5171.5500      0.57392671
       5173.5000      0.56696241
       5175.4500      0.55326331
       5177.4000      0.55841641
       5179.3500      0.56383291
       5181.3000      0.56946721
       5183.2500      0.57797821
       5185.2000      0.56474951
       5187.1500      0.55487071
       5189.1000      0.56068241
       5191.0500      0.57866701
       5193.0000      0.57973861
       5194.9500      0.57211731
       5196.9000      0.58020661
       5198.8500      0.59884631
       5200.8000      0.60210881
       5202.7500      0.58676821
       5204.7000      0.59438911
       5206.6500      0.60728751
       5208.6000      0.60263021
       5210.5500      0.59149711
       5212.5000      0.58787911
       5214.4500      0.59672371
       5216.4000      0.60203461
       5218.3500      0.58767271
       5220.3000      0.58994081
       5222.2500      0.60763961
       5224.2000      0.61053191
       5226.1500      0.59951371
       5228.1000      0.59786301
       5230.0500      0.61527671
       5232.0000      0.62137731
       5233.9500      0.61657031
       5235.9000      0.61760851
       5237.8500      0.60929721
       5239.8000      0.61663431
       5241.7500      0.64043361
       5243.7000      0.64211941
       5245.6500      0.63631141
       5247.6000      0.62522701
       5249.5500      0.63863071
       5251.5000      0.65250361
       5253.4500      0.63769581
       5255.4000      0.62809931
       5257.3500      0.62782161
       5259.3000      0.62851611
       5261.2500      0.63847241
       5263.2000      0.62241981
       5265.1500      0.61329041
       5267.1000      0.63285741
       5269.0500      0.62233621
       5271.0000      0.60819981
       5272.9500      0.60535171
       5274.9000      0.62119071
       5276.8500      0.62487341
       5278.8000      0.62702141
       5280.7500      0.62696811
       5282.7000      0.63380191
       5284.6500      0.63589531
       5286.6000      0.62218391
       5288.5501      0.62970071
       5290.5000      0.66156711
       5292.4500      0.67793421
       5294.4000      0.67191701
       5296.3500      0.66272711
       5298.3000      0.66471341
       5300.2500      0.65848671
       5302.2000      0.66880781
       5304.1500      0.66702461
       5306.1000      0.66762861
       5308.0500      0.66684851
       5310.0000      0.67004181
       5311.9500      0.67276221
       5313.9000      0.67540621
       5315.8500      0.67478381
       5317.8000      0.66511361
       5319.7500      0.64651971
       5321.7000      0.65710011
       5323.6500      0.66692561
       5325.6000      0.65949531
       5327.5500      0.65644961
       5329.5000      0.65691941
       5331.4500      0.66495481
       5333.4000      0.66787421
       5335.3500      0.68102451
       5337.3000      0.69475881
       5339.2500      0.67744111
       5341.2000      0.66372811
       5343.1500      0.67276221
       5345.1000      0.67325931
       5347.0500      0.67216651
       5349.0000      0.66908631
       5350.9500      0.65692591
       5352.9000      0.64991681
       5354.8500      0.65746011
       5356.8000      0.66780441
       5358.7500      0.65779961
       5360.7000      0.65005511
       5362.6500      0.65572181
       5364.6000      0.65631011
       5366.5500      0.64876491
       5368.5000      0.62689701
       5370.4500      0.63658531
       5372.4000      0.64695481
       5374.3500      0.64571571
       5376.3000      0.63593631
       5378.2500      0.63979741
       5380.2000      0.65632271
       5382.1500      0.65170561
       5384.1000      0.65485081
       5386.0500      0.65843621
       5388.0000      0.65367341
       5389.9500      0.65387021
       5391.9000      0.65073421
       5393.8499      0.64954021
       5395.8000      0.65243691
       5397.7500      0.64851901
       5399.7000      0.64644181
       5401.6500      0.65273431
       5403.6000      0.65267021
       5405.5500      0.64283541
       5407.5000      0.63785611
       5409.4500      0.64252281
       5411.4000      0.65226831
       5413.3500      0.65299341
       5415.3000      0.63066981
       5417.2500      0.62483221
       5419.2000      0.62803091
       5421.1500      0.61689881
       5423.1000      0.62608211
       5425.0500      0.63857431
       5427.0000      0.61348401
       5428.9500      0.59502881
       5430.9000      0.59314511
       5432.8500      0.59184361
       5434.8000      0.59452481
       5436.7500      0.58176591
       5438.7000      0.56042161
       5440.6500      0.55734171
       5442.6000      0.54813941
       5444.5500      0.53646111
       5446.5000      0.52384441
       5448.4500      0.52384101
       5450.4000      0.52921131
       5452.3500      0.51447441
       5454.3000      0.50914521
       5456.2500      0.49135691
       5458.2000      0.48595361
       5460.1500      0.48061281
       5462.1000      0.47326851
       5464.0500      0.47818001
       5466.0000      0.47611991
       5467.9500      0.47005931
       5469.9000      0.47587501
       5471.8500      0.47774471
       5473.8000      0.46618011
       5475.7500      0.47526081
       5477.7000      0.49047681
       5479.6500      0.48235681
       5481.6000      0.48935471
       5483.5500      0.51228301
       5485.5000      0.52335291
       5487.4500      0.52141571
       5489.4000      0.53363551
       5491.3500      0.56034671
       5493.3000      0.56896781
       5495.2500      0.57181011
       5497.2000      0.58318621
       5499.1500      0.58269481
       5501.1000      0.60044771
       5503.0500      0.62560341
       5505.0000      0.63619201
       5506.9500      0.64386561
       5508.9000      0.64907111
       5510.8500      0.68795351
       5512.8000      0.71364381
       5514.7500      0.72995961
       5516.7000      0.76354211
       5518.6500      0.78300441
       5520.6000      0.79503601
       5522.5500      0.81598661
       5524.5000      0.82420811
       5526.4500      0.84759331
       5528.4000      0.86089331
       5530.3500      0.87632231
       5532.3000      0.88081211
       5534.2500      0.86715021
       5536.2000      0.87806431
       5538.1500      0.93264641
       5540.1000      0.95085151
       5542.0500      0.93128761
       5544.0000      0.93977651
       5545.9500      0.91237981
       5547.9000      0.90297271
       5549.8500      0.91727881
       5551.8000      0.90611411
       5553.7500      0.90811101
       5555.7000      0.89847361
       5557.6500      0.87852301
       5559.6000      0.88003901
       5561.5500      0.87980811
       5563.5000      0.88660941
       5565.4500      0.87722031
       5567.4000      0.84344811
       5569.3500      0.83095851
       5571.3000      0.83123781
       5573.2500      0.81693871
       5575.2000      0.81841431
       5577.1500      0.80197941
       5579.1000      0.80336811
       5581.0500      0.80288691
       5583.0000      0.75143851
       5584.9500      0.70913741
       5586.9000      0.68965621
       5588.8500      0.65081321
       5590.8000      0.63338071
       5592.7500      0.60330521
       5594.7000      0.59542711
       5596.6500      0.58491851
       5598.6000      0.56066171
       5600.5500      0.54960701
       5602.5000      0.55038121
       5604.4500      0.53539941
       5606.4000      0.52529151
       5608.3500      0.50162821
       5610.3000      0.50510131
       5612.2500      0.51215031
       5614.2000      0.50050001
       5616.1500      0.48873381
       5618.1000      0.51292521
       5620.0500      0.51465311
       5622.0000      0.51304881
       5623.9500      0.52190211
       5625.9000      0.51014391
       5627.8500      0.51394341
       5629.8000      0.51139201
       5631.7500      0.52961271
       5633.7000      0.54605531
       5635.6500      0.54765081
       5637.6000      0.55143731
       5639.5500      0.56410121
       5641.5000      0.57762641
       5643.4500      0.57986761
       5645.4000      0.56888951
       5647.3500      0.55537071
       5649.3000      0.55419711
       5651.2500      0.56748161
       5653.2000      0.57698201
       5655.1500      0.54994521
       5657.1000      0.55788141
       5659.0500      0.55477411
       5661.0000      0.57076601
       5662.9500      0.54594191
       5664.9000      0.53805441
       5666.8500      0.50496931
       5668.8000      0.46478881
       5670.7500      0.45766981
       5672.7000      0.44997381
       5674.6500      0.43346071
       5676.6000      0.41771181
       5678.5500      0.38602091
       5680.5000      0.37970711
       5682.4500      0.36415601
       5684.4000      0.35475091
       5686.3500      0.34949871
       5688.3000      0.32478960
       5690.2500      0.32393070
       5692.2000      0.31003690
       5694.1500      0.29951760
       5696.1000      0.28925850
       5698.0500      0.28325680
       5700.0000      0.27912470
       5701.9500      0.27274190
       5703.9000      0.26488260
       5705.8500      0.26536580
       5707.8000      0.26549420
       5709.7500      0.24563780
       5711.7000      0.22631010
       5713.6500      0.22099510
       5715.6000      0.22355230
       5717.5500      0.20803590
       5719.5000      0.21898010
       5721.4500      0.23193980
       5723.4000      0.22044140
       5725.3500      0.22763430
       5727.3000      0.23255860
       5729.2500      0.23664560
       5731.2000      0.22918570
       5733.1500      0.23296820
       5735.1000      0.22481880
       5737.0500      0.23536710
       5739.0000      0.22827620
       5740.9500      0.21339080
       5742.9000      0.21056240
       5744.8500      0.20635280
       5746.8000      0.20002040
       5748.7500      0.18896900
       5750.7000      0.18155530
       5752.6500      0.17199700
       5754.6000      0.16920200
       5756.5500      0.17465650
       5758.5000      0.17714020
       5760.4500      0.18224120
       5762.4000      0.16755390
       5764.3500      0.16255140
       5766.3000      0.16540060
       5768.2500      0.16245210
       5770.2000      0.15366870
       5772.1500      0.15466820
       5774.1000      0.14537340
       5776.0500      0.14806500
       5778.0000      0.15491940
       5779.9500      0.14914380
       5781.9000      0.16133440
       5783.8500      0.15378030
       5785.8000      0.14688840
       5787.7500      0.15977880
       5789.7000      0.15431200
       5791.6500      0.15340220
       5793.6000      0.14993390
       5795.5500      0.16350050
       5797.5000      0.17310260
       5799.4500      0.15986020
       5801.4000      0.16386810
       5803.3500      0.16528410
       5805.3000      0.16851020
       5807.2500      0.17564170
       5809.2000      0.17569930
       5811.1500      0.17952530
       5813.1000      0.17888560
       5815.0500      0.18962040
       5817.0000      0.20133970
       5818.9500      0.20510540
       5820.9000      0.20894090
       5822.8500      0.21949850
       5824.8000      0.22470090
       5826.7500      0.23331480
       5828.7000      0.25107630
       5830.6500      0.27321550
       5832.6000      0.27498130
       5834.5500      0.29192880
       5836.5000      0.30358090
       5838.4500      0.32576030
       5840.4000      0.33599581
       5842.3500      0.34685671
       5844.3000      0.34309291
       5846.2500      0.34812791
       5848.2000      0.34922111
       5850.1500      0.36843141
       5852.1000      0.39265081
       5854.0500      0.39771201
       5856.0000      0.41109031
       5857.9500      0.42285671
       5859.9000      0.42804201
       5861.8500      0.43780531
       5863.8000      0.43698711
       5865.7500      0.43488571
       5867.7000      0.43452211
       5869.6500      0.45490661
       5871.6000      0.48393851
       5873.5500      0.49509711
       5875.5000      0.49889411
       5877.4500      0.50109001
       5879.4000      0.51858571
       5881.3500      0.52820301
       5883.3000      0.52303231
       5885.2500      0.52929911
       5887.2000      0.53526011
       5889.1500      0.52510881
       5891.1000      0.54343961
       5893.0500      0.55169751
       5895.0000      0.55930381
       5896.9500      0.55849061
       5898.9000      0.57477681
       5900.8500      0.60454881
       5902.8000      0.60045731
       5904.7500      0.62552041
       5906.7000      0.60483711
       5908.6500      0.60916211
       5910.6000      0.60897441
       5912.5500      0.60106551
       5914.5000      0.59100731
       5916.4500      0.56496771
       5918.4000      0.58938291
       5920.3500      0.59053201
       5922.3000      0.58878431
       5924.2500      0.57901871
       5926.2000      0.58491131
       5928.1500      0.59344191
       5930.1000      0.57843891
       5932.0500      0.57120001
       5934.0000      0.56640161
       5935.9500      0.59007571
       5937.9000      0.58313111
       5939.8500      0.57206041
       5941.8000      0.54711581
       5943.7500      0.56127821
       5945.7000      0.56830851
       5947.6500      0.56552901
       5949.6000      0.54953491
       5951.5500      0.53419871
       5953.5000      0.52519331
       5955.4500      0.52930871
       5957.4000      0.52054311
       5959.3500      0.52487471
       5961.3000      0.52514291
       5963.2500      0.52959291
       5965.2000      0.52302361
       5967.1500      0.51145801
       5969.1000      0.51153471
       5971.0500      0.49829421
       5973.0000      0.47960951
       5974.9500      0.50965311
       5976.9000      0.51316481
       5978.8500      0.50373601
       5980.8000      0.48476921
       5982.7500      0.47979021
       5984.7000      0.47615481
       5986.6500      0.47475771
       5988.6000      0.48924831
       5990.5500      0.47993131
       5992.5000      0.47467661
       5994.4500      0.48924961
       5996.4000      0.48246301
       5998.3500      0.47079941
       6000.3000      0.46488611
       6002.2500      0.47442551
       6004.2000      0.47645781
       6006.1500      0.45090891
       6008.1000      0.44013731
       6010.0500      0.43475701
       6012.0000      0.44932681
       6013.9500      0.45150421
       6015.9000      0.43682061
       6017.8500      0.42564171
       6019.8000      0.42247111
       6021.7500      0.41922101
       6023.7000      0.40475991
       6025.6500      0.41706091
       6027.6000      0.41245761
       6029.5500      0.40159301
       6031.5000      0.40765271
       6033.4500      0.40611441
       6035.4000      0.39194331
       6037.3500      0.39727971
       6039.3000      0.39253601
       6041.2500      0.39054701
       6043.2000      0.38445361
       6045.1500      0.39150501
       6047.1000      0.37716731
       6049.0500      0.37044101
       6051.0000      0.38635641
       6052.9500      0.38244661
       6054.9000      0.36909031
       6056.8500      0.36038341
       6058.8000      0.36307731
       6060.7500      0.37047291
       6062.7000      0.36956641
       6064.6500      0.36555411
       6066.6000      0.35469691
       6068.5500      0.35135931
       6070.5000      0.35588791
       6072.4500      0.35205551
       6074.4000      0.34479161
       6076.3500      0.35917821
       6078.3000      0.35263751
       6080.2500      0.36226161
       6082.2000      0.36220531
       6084.1500      0.36073201
       6086.1000      0.35724711
       6088.0500      0.34742521
       6090.0000      0.35243861
       6091.9500      0.35284641
       6093.9000      0.35360601
       6095.8500      0.36849471
       6097.8000      0.37015631
       6099.7500      0.36583741
       6101.7000      0.37758911
       6103.6500      0.38071381
       6105.6000      0.37621061
       6107.5500      0.37291861
       6109.5000      0.38062071
       6111.4500      0.38301991
       6113.4000      0.37414001
       6115.3500      0.39061781
       6117.3000      0.39997421
       6119.2500      0.38511041
       6121.2000      0.38589701
       6123.1500      0.39374341
       6125.1000      0.38642561
       6127.0500      0.38496261
       6129.0000      0.39848441
       6130.9500      0.41185431
       6132.9000      0.41966031
       6134.8500      0.41529401
       6136.8000      0.41464471
       6138.7500      0.42063481
       6140.7000      0.40890651
       6142.6500      0.41336571
       6144.6000      0.40819741
       6146.5500      0.41914401
       6148.5000      0.41344171
       6150.4500      0.40667201
       6152.4000      0.41564441
       6154.3500      0.40316591
       6156.3000      0.39932121
       6158.2500      0.40326921
       6160.2000      0.42337931
       6162.1500      0.41630511
       6164.1000      0.40824041
       6166.0500      0.40524661
       6168.0000      0.39291331
       6169.9500      0.40286391
       6171.9000      0.41646781
       6173.8500      0.40439571
       6175.8000      0.40400041
       6177.7500      0.40134751
       6179.7000      0.41633651
       6181.6500      0.42769471
       6183.6000      0.43841401
       6185.5500      0.44442501
       6187.5000      0.45055391
       6189.4500      0.46297271
       6191.4000      0.48566001
       6193.3500      0.48061731
       6195.3000      0.49547311
       6197.2500      0.51192231
       6199.2000      0.53181261
       6201.1500      0.54794521
       6203.1000      0.55715121
       6205.0500      0.57844821
       6207.0000      0.60065881
       6208.9500      0.61112031
       6210.9000      0.64578711
       6212.8500      0.67643691
       6214.8000      0.71154771
       6216.7500      0.73574601
       6218.7000      0.75432031
       6220.6500      0.79534621
       6222.6001      0.82639931
       6224.5500      0.87385851
       6226.5000      0.92105981
       6228.4500      0.99732141
       6230.4000       1.0723750
       6232.3500       1.1282270
       6234.3000       1.1784820
       6236.2500       1.2191340
       6238.2000       1.2600010
       6240.1500       1.3038600
       6242.1000       1.3465970
       6244.0500       1.3576660
       6246.0000       1.3872240
       6247.9500       1.3994250
       6249.9000       1.4257660
       6251.8500       1.4739050
       6253.8000       1.4907990
       6255.7500       1.5173330
       6257.7000       1.5471060
       6259.6500       1.5635500
       6261.6000       1.5743530
       6263.5500       1.5459290
       6265.5000       1.5211940
       6267.4500       1.5372310
       6269.4000       1.5459840
       6271.3500       1.5492640
       6273.3000       1.6344190
       6275.2500       1.6771160
       6277.2000       1.6744150
       6279.1500       1.7235510
       6281.1000       1.7648870
       6283.0500       1.7845190
       6285.0000       1.8227500
       6286.9500       1.8241180
       6288.9000       1.7845570
       6290.8500       1.8451340
       6292.8000       1.9333510
       6294.7500       1.9276050
       6296.7000       1.9170370
       6298.6500       1.9918940
       6300.6000       2.0106820
       6302.5500       2.0314240
       6304.5000       2.0856650
       6306.4500       2.0750370
       6308.4000       2.0074280
       6310.3500       1.9850170
       6312.3000       1.9988250
       6314.2500       1.9998230
       6316.2000       1.9763860
       6318.1500       1.9232370
       6320.1000       1.9067020
       6322.0500       1.9376700
       6324.0000       1.9057770
       6325.9500       1.8281760
       6327.8999       1.8207550
       6329.8500       1.8462120
       6331.8000       1.8157790
       6333.7500       1.7548940
       6335.7000       1.7371570
       6337.6500       1.7402550
       6339.6000       1.7322220
       6341.5500       1.7182050
       6343.5000       1.7397930
       6345.4500       1.7407570
       6347.4000       1.7483860
       6349.3500       1.6896690
       6351.3000       1.6233340
       6353.2500       1.6302950
       6355.2000       1.6118430
       6357.1500       1.5994660
       6359.1000       1.5841540
       6361.0500       1.5693140
       6363.0000       1.5997280
       6364.9500       1.6027370
       6366.9000       1.5755590
       6368.8500       1.5412650
       6370.8000       1.5415070
       6372.7500       1.5389310
       6374.7000       1.5071880
       6376.6500       1.4742770
       6378.6000       1.4415340
       6380.5500       1.3918350
       6382.5000       1.3229490
       6384.4500       1.2957850
       6386.4000       1.3040390
       6388.3500       1.2950970
       6390.3000       1.2415220
       6392.2500       1.1880300
       6394.2000       1.1948570
       6396.1500       1.1746090
       6398.1000       1.1556270
       6400.0500       1.1455390
       6402.0000       1.1292880
       6403.9500       1.1122010
       6405.9000       1.1076590
       6407.8500       1.0918340
       6409.8000       1.0619000
       6411.7500       1.0412740
       6413.7000       1.0374000
       6415.6500       1.0214390
       6417.6000      0.98581491
       6419.5500      0.96084321
       6421.5000      0.94809001
       6423.4500      0.94388741
       6425.4000      0.94716791
       6427.3500      0.93193301
       6429.3000      0.92722621
       6431.2500      0.92681961
       6433.2000      0.91760441
       6435.1500      0.90104881
       6437.1000      0.89408241
       6439.0500      0.88413671
       6441.0000      0.85070321
       6442.9500      0.83531391
       6444.9000      0.83061431
       6446.8500      0.82471641
       6448.8000      0.82567181
       6450.7500      0.80048491
       6452.7000      0.79182471
       6454.6500      0.80361331
       6456.6000      0.80544751
       6458.5500      0.80863661
       6460.5000      0.79014381
       6462.4500      0.78201081
       6464.4000      0.77686451
       6466.3500      0.76781641
       6468.3000      0.76895131
       6470.2500      0.75510391
       6472.2000      0.76172691
       6474.1500      0.76329191
       6476.1000      0.74142411
       6478.0500      0.73190281
       6480.0000      0.73035731
       6481.9500      0.71610171
       6483.9000      0.71653791
       6485.8500      0.70185111
       6487.8000      0.68552491
       6489.7500      0.69972311
       6491.7000      0.70034421
       6493.6500      0.68611451
       6495.6000      0.67262381
       6497.5500      0.67415501
       6499.5000      0.66578591
       6501.4500      0.66896501
       6503.4000      0.67618211
       6505.3500      0.67543851
       6507.3000      0.68509131
       6509.2500      0.69181111
       6511.2000      0.66835231
       6513.1500      0.64832611
       6515.1000      0.65830521
       6517.0500      0.66356531
       6519.0000      0.65235761
       6520.9500      0.65263361
       6522.9000      0.65579891
       6524.8500      0.63580201
       6526.8000      0.62381801
       6528.7500      0.62106801
       6530.7000      0.60455411
       6532.6500      0.58857831
       6534.6000      0.58644911
       6536.5500      0.58312231
       6538.5000      0.57582721
       6540.4500      0.56176861
       6542.4000      0.55181291
       6544.3500      0.54639681
       6546.3000      0.53864201
       6548.2500      0.53452011
       6550.2000      0.54020881
       6552.1500      0.54382721
       6554.1000      0.53923871
       6556.0500      0.53492511
       6558.0000      0.53068001
       6559.9500      0.53205371
       6561.9000      0.53651911
       6563.8500      0.53074541
       6565.8000      0.52787281
       6567.7500      0.53016071
       6569.7000      0.53263471
       6571.6500      0.53572621
       6573.6000      0.52543321
       6575.5500      0.50357941
       6577.5000      0.50099871
       6579.4500      0.52396871
       6581.4000      0.53231951
       6583.3500      0.51738721
       6585.3000      0.50831831
       6587.2500      0.51492351
       6589.2000      0.53788821
       6591.1500      0.58249171
       6593.1000      0.60909611
       6595.0500      0.57598731
       6597.0000      0.53350561
       6598.9500      0.50872571
       6600.9000      0.49566331
       6602.8500      0.49168621
       6604.8000      0.49311361
       6606.7500      0.49745041
       6608.7000      0.48715861
       6610.6500      0.47229401
       6612.6000      0.47724701
       6614.5500      0.47402581
       6616.5000      0.46681191
       6618.4500      0.46073701
       6620.4000      0.44520521
       6622.3500      0.44416941
       6624.3000      0.45848881
       6626.2500      0.46825451
       6628.2000      0.45674231
       6630.1500      0.43366131
       6632.1000      0.43505501
       6634.0500      0.44319031
       6636.0000      0.44079531
       6637.9500      0.41574631
       6639.9000      0.40081371
       6641.8500      0.41001821
       6643.8000      0.41024131
       6645.7500      0.40317341
       6647.7000      0.39827371
       6649.6500      0.38608641
       6651.6000      0.38055141
       6653.5500      0.38909141
       6655.5000      0.38944401
       6657.4500      0.38546571
       6659.4000      0.37839611
       6661.3500      0.37387271
       6663.3000      0.37638391
       6665.2500      0.36283521
       6667.2000      0.34905251
       6669.1500      0.35198931
       6671.1000      0.36228531
       6673.0500      0.36263761
       6675.0000      0.35535781
       6676.9500      0.35577421
       6678.9000      0.35104301
       6680.8500      0.34394191
       6682.8000      0.34915421
       6684.7500      0.34442551
       6686.7000      0.32866560
       6688.6500      0.33909691
       6690.6000      0.34570431
       6692.5500      0.32644940
       6694.5000      0.32445740
       6696.4500      0.33779131
       6698.4000      0.33488260
       6700.3500      0.32004920
       6702.3000      0.31132830
       6704.2500      0.31246910
       6706.2000      0.31481500
       6708.1500      0.31430040
       6710.1000      0.31040650
       6712.0500      0.29466840
       6714.0000      0.27975380
       6715.9500      0.28075040
       6717.9000      0.28105000
       6719.8500      0.26768490
       6721.8000      0.26417210
       6723.7500      0.28132380
       6725.7000      0.28983890
       6727.6500      0.27414460
       6729.6000      0.26716870
       6731.5500      0.26931000
       6733.5000      0.26881810
       6735.4500      0.26296340
       6737.4000      0.25611650
       6739.3500      0.26341120
       6741.3000      0.26238100
       6743.2500      0.26621880
       6745.2000      0.27216560
       6747.1500      0.25461440
       6749.1000      0.23989060
       6751.0500      0.24119610
       6753.0000      0.23929300
       6754.9500      0.23935660
       6756.9000      0.23660140
       6758.8500      0.22386910
       6760.8000      0.22208390
       6762.7500      0.23850020
       6764.7000      0.23995800
       6766.6500      0.23347740
       6768.6000      0.22755080
       6770.5500      0.23352680
       6772.5000      0.23596680
       6774.4500      0.23364810
       6776.4000      0.23484020
       6778.3500      0.23410200
       6780.3000      0.23091010
       6782.2500      0.22818350
       6784.2000      0.23738800
       6786.1500      0.23375900
       6788.1000      0.23404530
       6790.0500      0.23536360
       6792.0000      0.23145000
       6793.9500      0.23609130
       6795.9000      0.23087430
       6797.8500      0.23188270
       6799.8000      0.23175900
       6801.7500      0.22887380
       6803.7000      0.23198430
       6805.6500      0.23117200
       6807.6000      0.23376960
       6809.5500      0.22274420
       6811.5000      0.21449070
       6813.4500      0.22514260
       6815.4000      0.23124720
       6817.3500      0.22574910
       6819.3000      0.22542750
       6821.2500      0.22987300
       6823.2000      0.22208600
       6825.1500      0.20998220
       6827.1000      0.22227880
       6829.0500      0.23260060
       6831.0000      0.22345660
       6832.9500      0.22432250
       6834.9000      0.22184910
       6836.8500      0.21898150
       6838.8000      0.21731890
       6840.7500      0.22497800
       6842.7000      0.23399210
       6844.6500      0.22215110
       6846.6000      0.21342760
       6848.5500      0.21710420
       6850.5000      0.21613220
       6852.4500      0.21908470
       6854.4000      0.21917660
       6856.3500      0.20859300
       6858.3000      0.20279220
       6860.2500      0.19429390
       6862.2000      0.19871390
       6864.1500      0.21197550
       6866.1000      0.19890930
       6868.0500      0.18393800
       6870.0000      0.19913240
       6871.9500      0.21435680
       6873.9000      0.20800230
       6875.8500      0.19924250
       6877.8000      0.19813780
       6879.7500      0.19629550
       6881.7000      0.20126970
       6883.6500      0.20138810
       6885.6000      0.19946720
       6887.5500      0.20348140
       6889.5000      0.20256730
       6891.4500      0.20033250
       6893.4000      0.19543230
       6895.3500      0.20016930
       6897.3000      0.19246070
       6899.2500      0.17212960
       6901.2000      0.18737650
       6903.1500      0.19052420
       6905.1000      0.18583910
       6907.0500      0.18621980
       6909.0000      0.18448360
       6910.9500      0.18450300
       6912.9000      0.17669160
       6914.8500      0.17276140
       6916.8000      0.18270470
       6918.7500      0.18467500
       6920.7000      0.15871520
       6922.6500      0.17401940
       6924.6000      0.17898690
       6926.5500      0.17547710
       6928.5000      0.18834810
       6930.4500      0.17094190
       6932.4000      0.18392690
       6934.3500      0.19731850
       6936.3000      0.19114890
       6938.2500      0.19401980
       6940.2000      0.19086200
       6942.1500      0.17721590
       6944.1000      0.19370160
       6946.0500      0.19289760
       6948.0000      0.18682190
       6949.9500      0.17988610
       6951.9000      0.20037740
       6953.8500      0.21657650
       6955.8000      0.20626770
       6957.7500      0.21536740
       6959.7000      0.21076160
       6961.6500      0.19174970
       6963.6000      0.21527680
       6965.5500      0.22228790
       6967.5000      0.22079200
       6969.4500      0.22568030
       6971.4000      0.22475600
       6973.3500      0.23385670
       6975.3000      0.23772050
       6977.2500      0.22479480
       6979.2000      0.23303970
       6981.1500      0.23936990
       6983.1000      0.24108000
       6985.0500      0.25649620
       6987.0000      0.25530530
       6988.9500      0.25673830
       6990.9000      0.25945920
       6992.8500      0.26591040
       6994.8000      0.27033150
       6996.7500      0.26686370
       6998.7000      0.25301000
       7000.6500      0.27698710
       7002.6000      0.28410790
       7004.5500      0.28170350
       7006.5000      0.27953900
       7008.4500      0.28895970
       7010.4000      0.28914880
       7012.3500      0.27967100
       7014.3000      0.28416960
       7016.2500      0.29771570
       7018.2000      0.28433440
       7020.1500      0.29169560
       7022.1000      0.28231230
       7024.0500      0.27205420
       7026.0000      0.28493720
       7027.9500      0.28103080
       7029.9000      0.28801270
       7031.8500      0.28967300
       7033.8000      0.29835620
       7035.7500      0.27963200
       7037.7000      0.28246100
       7039.6500      0.29587720
       7041.6000      0.29023080
       7043.5500      0.29103650
       7045.5000      0.28145130
       7047.4500      0.27436240
       7049.4000      0.27410280
       7051.3500      0.28100810
       7053.3000      0.29523780
       7055.2500      0.29851550
       7057.2000      0.29987390
       7059.1500      0.29187450
       7061.1000      0.28448680
       7063.0500      0.29244510
       7065.0000      0.15864600
       7066.9500      0.20766410
       7068.9000      0.29509110
       7070.8500      0.28811760
       7072.8000      0.29280410
       7074.7500      0.29876960
       7076.7000      0.29891840
       7078.6500      0.29021340
       7080.6000      0.29740940
       7082.5500      0.31554060
       7084.5000      0.32387020
       7086.4500      0.32463600
       7088.4000      0.32850420
       7090.3500      0.32561430
       7092.3000      0.32733140
       7094.2500      0.32403850
       7096.2000      0.31498540
       7098.1500      0.32084760
       7100.1000      0.31693660
       7102.0500      0.32994680
       7104.0000      0.32911210
       7105.9500      0.30993330
       7107.9000      0.32235170
       7109.8500      0.32537160
       7111.8000      0.32440220
       7113.7500      0.33929981
       7115.7000      0.32544500
       7117.6500      0.32068740
       7119.6000      0.33996121
       7121.5500      0.34656381
       7123.5000      0.34107161
       7125.4500      0.33350100
       7127.4000      0.31932510
       7129.3500      0.32703100
       7131.3000      0.32649110
       7133.2500      0.32159860
       7135.2000      0.35294161
       7137.1500      0.34537251
       7139.1000      0.34660571
       7141.0500      0.35821721
       7143.0000      0.34910951
       7144.9500      0.35809071
       7146.9000      0.35943901
       7148.8500      0.35829111
       7150.8000      0.36206661
       7152.7500      0.36472551
       7154.7000      0.34391911
       7156.6501      0.33356000
       7158.6000      0.35077281
       7160.5500      0.34272581
       7162.5000      0.34816951
       7164.4500      0.35538951
       7166.4000      0.35565961
       7168.3500      0.35939251
       7170.3000      0.36678421
       7172.2500      0.36612461
       7174.2000      0.35542241
       7176.1500      0.35981261
       7178.1000      0.36805131
       7180.0500      0.37404951
       7182.0000      0.38504251
       7183.9500      0.39097501
       7185.9000      0.40533181
       7187.8500      0.41098521
       7189.8000      0.39932171
       7191.7500      0.38624891
       7193.7000      0.39305061
       7195.6500      0.41388081
       7197.6000      0.40680201
       7199.5500      0.39719811
       7201.5000      0.41300041
       7203.4500      0.42263361
       7205.4000      0.44504441
       7207.3500      0.43859871
       7209.3000      0.44351941
       7211.2500      0.43794111
       7213.2000      0.44686151
       7215.1500      0.45003841
       7217.1000      0.46219221
       7219.0500      0.47374731
       7221.0000      0.46404491
       7222.9500      0.49021411
       7224.9000      0.48477561
       7226.8500      0.50428091
       7228.8000      0.49916551
       7230.7500      0.49448021
       7232.7000      0.49840311
       7234.6500      0.49943891
       7236.6000      0.52027731
       7238.5500      0.54924551
       7240.5000      0.51838831
       7242.4500      0.51127211
       7244.4000      0.55914331
       7246.3500      0.55689731
       7248.3000      0.52864381
       7250.2500      0.56945901
       7252.2000      0.54917971
       7254.1500      0.56952301
       7256.1000      0.58056111
       7258.0500      0.59259391
       7260.0000      0.59611631
       7261.9499      0.60509611
       7263.9000      0.61072371
       7265.8500      0.62600871
       7267.8000      0.61778301
       7269.7500      0.61699811
       7271.7000      0.65504531
       7273.6500      0.67015811
       7275.6000      0.65739681
       7277.5500      0.68561151
       7279.5000      0.70612851
       7281.4500      0.71003381
       7283.4000      0.72350051
       7285.3500      0.72188871
       7287.3000      0.72692201
       7289.2500      0.77494061
       7291.2000      0.82511061
       7293.1500      0.78643981
       7295.1000      0.80418621
       7297.0500      0.80744711
       7299.0000      0.83957531
       7300.9500      0.87095781
       7302.9000      0.89232901
       7304.8500      0.91160081
       7306.8000      0.91331671
       7308.7500      0.89975091
       7310.7000      0.87038551
       7312.6500      0.84550931
       7314.6000      0.85471511
       7316.5500      0.90749661
       7318.5000      0.93743641
       7320.4500      0.90683621
       7322.4000      0.93019031
       7324.3500      0.91943981
       7326.3000      0.92175211
       7328.2500      0.95593361
       7330.2000      0.94447241
       7332.1500      0.92256251
       7334.1000      0.91283901
       7336.0500      0.92257761
       7338.0000      0.89905501
       7339.9500      0.87157871
       7341.9000      0.89881891
       7343.8500      0.90192931
       7345.8000      0.88426161
       7347.7500      0.87503901
       7349.7000      0.85779031
       7351.6500      0.86801071
       7353.6000      0.90063461
       7355.5500      0.89425621
       7357.5000      0.85576291
       7359.4500      0.84005101
       7361.4000      0.82688371
       7363.3500      0.81276911
       7365.3000      0.79888941
       7367.2500      0.78412571
       7369.2000      0.75888381
       7371.1500      0.73814091
       7373.1000      0.74007901
       7375.0500      0.73647961
       7377.0000      0.70463721
       7378.9500      0.67109811
       7380.9000      0.66707891
       7382.8500      0.68335331
       7384.8000      0.68230271
       7386.7500      0.67386611
       7388.7000      0.65613061
       7390.6500      0.65349151
       7392.6000      0.65051061
       7394.5500      0.62688861
       7396.5000      0.62616861
       7398.4500      0.63273991
       7400.4000      0.60306971
       7402.3500      0.59333631
       7404.3000      0.60613661
       7406.2500      0.58680251
       7408.2000      0.56526141
       7410.1500      0.55297211
       7412.1000      0.54743811
       7414.0500      0.54619161
       7416.0000      0.53331441
       7417.9500      0.52447391
       7419.9000      0.51248141
       7421.8500      0.50284121
       7423.8000      0.51515701
       7425.7500      0.52264221
       7427.7000      0.50353491
       7429.6500      0.49997351
       7431.6000      0.50374501
       7433.5500      0.48947131
       7435.5000      0.49988331
       7437.4500      0.48699261
       7439.4000      0.47642171
       7441.3500      0.47424671
       7443.3000      0.46676761
       7445.2500      0.46373171
       7447.2000      0.46411521
       7449.1500      0.45862721
       7451.1000      0.44762901
       7453.0500      0.43814991
       7455.0000      0.42584601
       7456.9500      0.42484271
       7458.9000      0.42668101
       7460.8500      0.42256391
       7462.8000      0.40511601
       7464.7500      0.40439101
       7466.7000      0.42264751
       7468.6500      0.40212991
       7470.6000      0.37032541
       7472.5500      0.36939221
       7474.5000      0.38520661
       7476.4500      0.38206391
       7478.4000      0.35810501
       7480.3500      0.36379471
       7482.3000      0.36175361
       7484.2500      0.34667841
       7486.2000      0.32714890
       7488.1500      0.33780331
       7490.1000      0.34318381
       7492.0500      0.34107891
       7494.0000      0.33150830
       7495.9500      0.32766050
       7497.9000      0.32581720
       7499.8500      0.31160140
       7501.8000      0.30958480
       7503.7500      0.30322130
       7505.7000      0.29265630
       7507.6500      0.29953750
       7509.6000      0.29696560
       7511.5500      0.29337210
       7513.5000      0.28515860
       7515.4500      0.27320360
       7517.4000      0.26826680
       7519.3500      0.27355670
       7521.3000      0.27616310
       7523.2500      0.26782080
       7525.2000      0.26467910
       7527.1500      0.26593250
       7529.1000      0.26982230
       7531.0500      0.26996140
       7533.0000      0.26274220
       7534.9500      0.26732150
       7536.9000      0.25538980
       7538.8500      0.24467610
       7540.8000      0.26295360
       7542.7500      0.26177750
       7544.7000      0.25330720
       7546.6500      0.24474830
       7548.6000      0.24080790
       7550.5500      0.25560930
       7552.5000      0.24879110
       7554.4500      0.23725710
       7556.4000      0.22253650
       7558.3500      0.22626950
       7560.3000      0.23084760
       7562.2500      0.23172210
       7564.2000      0.24250700
       7566.1500      0.22500510
       7568.1000      0.20525590
       7570.0500      0.22613040
       7572.0000      0.22649820
       7573.9500      0.21324890
       7575.9000      0.21198670
       7577.8500      0.21160150
       7579.8000      0.20502660
       7581.7500      0.20528490
       7583.7000      0.20945640
       7585.6500      0.19824190
       7587.6000      0.20418380
       7589.5500      0.23010810
       7591.5000      0.21344360
       7593.4500      0.19470770
       7595.4000      0.18116080
       7597.3500      0.18570110
       7599.3000      0.18948670
       7601.2500      0.15855120
       7603.2000      0.14869140
       7605.1500      0.16518040
       7607.1000      0.17301510
       7609.0500      0.17261020
       7611.0000      0.17898710
       7612.9500      0.18528640
       7614.9000      0.18896690
       7616.8500      0.19961570
       7618.8000      0.19218110
       7620.7500      0.18337580
       7622.7000      0.18218710
       7624.6500      0.19348400
       7626.6000      0.17938900
       7628.5500      0.16679810
       7630.5000      0.19661530
       7632.4500      0.19544240
       7634.4000      0.17963150
       7636.3500      0.18195690
       7638.3000      0.18593060
       7640.2500      0.19461470
       7642.2000      0.19022880
       7644.1500      0.18325040
       7646.1000      0.18770050
       7648.0500      0.18338930
       7650.0000      0.17655310
       7651.9500      0.18223420
       7653.9000      0.17762170
       7655.8500      0.16983820
       7657.8000      0.17379970
       7659.7500      0.16914860
       7661.7000      0.17535580
       7663.6500      0.18238220
       7665.6000      0.17497850
       7667.5500      0.17421310
       7669.5000      0.16758650
       7671.4500      0.17195560
       7673.4000      0.19827000
       7675.3500      0.19949720
       7677.3000      0.20309550
       7679.2500      0.21116980
       7681.2000      0.21290410
       7683.1500      0.20595230
       7685.1000      0.21235870
       7687.0500      0.22968670
       7689.0000      0.24750270
       7690.9500      0.25134170
       7692.9000      0.25038010
       7694.8500      0.26594460
       7696.8000      0.26987590
       7698.7500      0.27469200
       7700.7000      0.29119920
       7702.6500      0.29485750
       7704.6000      0.31700910
       7706.5500      0.32906410
       7708.5000      0.34112171
       7710.4500      0.34688711
       7712.4000      0.33878151
       7714.3500      0.33410920
       7716.3000      0.35007751
       7718.2500      0.38106921
       7720.2000      0.38195591
       7722.1500      0.40116321
       7724.1000      0.42110161
       7726.0500      0.41248311
       7728.0000      0.39754211
       7729.9500      0.40469791
       7731.9000      0.43453851
       7733.8500      0.44291041
       7735.8000      0.44615351
       7737.7500      0.44814981
       7739.7000      0.43974811
       7741.6500      0.46781191
       7743.6000      0.48957771
       7745.5500      0.47933831
       7747.5000      0.48831031
       7749.4500      0.48750311
       7751.4000      0.50205391
       7753.3500      0.51150391
       7755.3000      0.51413641
       7757.2500      0.52812051
       7759.2000      0.51735921
       7761.1500      0.53208911
       7763.1000      0.55372671
       7765.0500      0.54342501
       7767.0000      0.55546641
       7768.9500      0.57905701
       7770.9000      0.61626431
       7772.8500      0.61600731
       7774.8000      0.57610281
       7776.7500      0.58712621
       7778.7000      0.61172401
       7780.6500      0.62007101
       7782.6000      0.61695021
       7784.5500      0.60535071
       7786.5000      0.59744541
       7788.4500      0.58399241
       7790.4000      0.56572931
       7792.3500      0.57501251
       7794.3000      0.58231591
       7796.2500      0.56771791
       7798.2000      0.56490011
       7800.1500      0.55162461
       7802.1000      0.51723251
       7804.0500      0.50179711
       7806.0000      0.50244361
       7807.9500      0.49110531
       7809.9000      0.47615611
       7811.8500      0.47667701
       7813.8000      0.48462651
       7815.7500      0.48686031
       7817.7000      0.45936261
       7819.6500      0.43151541
       7821.6000      0.42657311
       7823.5500      0.42430441
       7825.5000      0.43381001
       7827.4500      0.43345751
       7829.4000      0.42563581
       7831.3500      0.42997271
       7833.3000      0.41012441
       7835.2500      0.39148451
       7837.2000      0.40946851
       7839.1500      0.41342981
       7841.1000      0.38986691
       7843.0500      0.37042921
       7845.0000      0.38004701
       7846.9500      0.39095931
       7848.9000      0.37525521
       7850.8500      0.37720421
       7852.8000      0.38952481
       7854.7500      0.37437921
       7856.7000      0.36449251
       7858.6500      0.38836511
       7860.6000      0.40506631
       7862.5500      0.39528711
       7864.5000      0.37669661
       7866.4500      0.37106991
       7868.4000      0.36167681
       7870.3500      0.33658591
       7872.3000      0.34443001
       7874.2500      0.36174091
       7876.2000      0.34412781
       7878.1500      0.34825411
       7880.1000      0.35292381
       7882.0500      0.32908630
       7884.0000      0.32845260
       7885.9500      0.30916570
       7887.9000      0.29351910
       7889.8500      0.31667980
       7891.8000      0.32978200
       7893.7500      0.32499900
       7895.7000      0.32873240
       7897.6500      0.31863580
       7899.6000      0.30925750
       7901.5500      0.32021800
       7903.5000      0.31238010
       7905.4500      0.31237040
       7907.4000      0.32667650
       7909.3500      0.32660190
       7911.3000      0.32587410
       7913.2500      0.33398820
       7915.2000      0.32697470
       7917.1500      0.30915350
       7919.1000      0.31349590
       7921.0500      0.31400110
       7923.0000      0.30092290
       7924.9500      0.29910710
       7926.9000      0.31337640
       7928.8500      0.31954460
       7930.8000      0.31423130
       7932.7500      0.31382090
       7934.7000      0.31108110
       7936.6500      0.30503430
       7938.6000      0.30348720
       7940.5500      0.30904830
       7942.5000      0.29578470
       7944.4500      0.27490980
       7946.4000      0.27919760
       7948.3500      0.28690640
       7950.3000      0.28867250
       7952.2500      0.29004700
       7954.2000      0.29120510
       7956.1500      0.29284890
       7958.1000      0.28608670
       7960.0500      0.29038500
       7962.0000      0.29447960
       7963.9500      0.28695400
       7965.9000      0.28999930
       7967.8500      0.28921710
       7969.8000      0.28415540
       7971.7500      0.29085600
       7973.7000      0.29357460
       7975.6500      0.28554170
       7977.6000      0.28179790
       7979.5500      0.28623650
       7981.5000      0.27472110
       7983.4500      0.26070130
       7985.4000      0.26730020
       7987.3500      0.26574430
       7989.3000      0.24721540
       7991.2500      0.24999260
       7993.2000      0.26864190
       7995.1500      0.26859000
       7997.1000      0.25046270
       7999.0500      0.24644440
       8001.0000      0.25835500
       8002.9500      0.25771060
       8004.9000      0.23884650
       8006.8500      0.23125080
       8008.8000      0.25266610
       8010.7500      0.26544350
       8012.7000      0.25002550
       8014.6500      0.24966000
       8016.6000      0.25525830
       8018.5500      0.24641240
       8020.5000      0.24745790
       8022.4500      0.26050640
       8024.4000      0.25727190
       8026.3500      0.23861810
       8028.3000      0.23536040
       8030.2500      0.24111190
       8032.2000      0.25215540
       8034.1500      0.23798590
       8036.1000      0.21399730
       8038.0500      0.21136800
       8040.0000      0.22295500
       8041.9500      0.22931280
       8043.9000      0.22573850
       8045.8500      0.22270540
       8047.8000      0.21530410
       8049.7500      0.21270170
       8051.7000      0.21477700
       8053.6500      0.20886710
       8055.6000      0.21282350
       8057.5500      0.21610890
       8059.5000      0.21672270
       8061.4500      0.20752070
       8063.4000      0.20956250
       8065.3500      0.22692520
       8067.3000      0.23104510
       8069.2500      0.21107340
       8071.2000      0.20705190
       8073.1500      0.21597000
       8075.1000      0.21031320
       8077.0500      0.21299100
       8079.0000      0.22002810
       8080.9500      0.21867510
       8082.9000      0.22210200
       8084.8500      0.21444540
       8086.8000      0.21154080
       8088.7500      0.21263240
       8090.7001      0.20282890
       8092.6500      0.19047480
       8094.6000      0.18877170
       8096.5500      0.20279980
       8098.5000      0.20689750
       8100.4500      0.21971540
       8102.4000      0.21304660
       8104.3500      0.19759020
       8106.3000      0.18706070
       8108.2500      0.18355810
       8110.2000      0.19434550
       8112.1500      0.20100250
       8114.1000      0.17643170
       8116.0500      0.17075580
       8118.0000      0.19356920
       8119.9500      0.18897920
       8121.9000      0.19074430
       8123.8500      0.19975580
       8125.8000      0.19727520
       8127.7500      0.19488440
       8129.7000      0.18475040
       8131.6500      0.17680900
       8133.6000      0.17263590
       8135.5500      0.17033680
       8137.5000      0.16414770
       8139.4500      0.16272690
       8141.4000      0.17600130
       8143.3500      0.19902830
       8145.3000      0.20259180
       8147.2500      0.19518650
       8149.2000      0.16795920
       8151.1500      0.15777210
       8153.1000      0.17235830
       8155.0500      0.19304030
       8157.0000      0.18012690
       8158.9500      0.15365860
       8160.9000      0.16074220
       8162.8500      0.17396610
       8164.8000      0.16847100
       8166.7500      0.17260640
       8168.7000      0.17410400
       8170.6500      0.16606340
       8172.6000      0.15650500
       8174.5500      0.15291900
       8176.5000      0.16891200
       8178.4500      0.18812920
       8180.4000      0.17901280
       8182.3500      0.16902210
       8184.3000      0.16836830
       8186.2500      0.15916280
       8188.2000      0.16658910
       8190.1500      0.17577530
       8192.1000      0.17997550
       8194.0500      0.17420920
       8195.9999      0.16668690
       8197.9500      0.17464260
       8199.9000      0.16913250
       8201.8500      0.16587450
       8203.8000      0.16722490
       8205.7500      0.15464650
       8207.7000      0.16799970
       8209.6500      0.17917050
       8211.6000      0.17109070
       8213.5500      0.17087130
       8215.5000      0.17446770
       8217.4500      0.15520960
       8219.4000      0.15801520
       8221.3500      0.15387910
       8223.3000      0.16129470
       8225.2500      0.16763650
       8227.2000      0.15475970
       8229.1500      0.13564230
       8231.1000      0.12531300
       8233.0500      0.11559780
       8235.0000      0.11956690
       8236.9500      0.13009550
       8238.9000      0.13171000
       8240.8500      0.12660810
       8242.8000      0.10528970
       8244.7500      0.10335050
       8246.7000      0.10416050
       8248.6500     0.093511961
       8250.6000     0.081480261
       8252.5500     0.076533801
       8254.5000     0.095105981
       8256.4500     0.090945461
       8258.4000     0.076526461
       8260.3500     0.081574001
       8262.3000     0.058738561
       8264.2500     0.063102351
       8266.2000     0.073166461
       8268.1500     0.070546411
       8270.1000     0.065288341
       8272.0500     0.058046601
       8274.0000     0.071528971
       8275.9500     0.054828411
       8277.9000     0.059320771
       8279.8500     0.073908251
       8281.8000     0.056154971
       8283.7500     0.043999701
       8285.7000     0.069788901
       8287.6500     0.067289311
       8289.6000     0.057523481
       8291.5500     0.051866111
       8293.5000     0.039763951
       8295.4500     0.033349280
       8297.4000     0.044632681
       8299.3500     0.049785291
       8301.3000     0.048634101
       8303.2500     0.041388481
       8305.2000     0.033149910
       8307.1500     0.040736581
       8309.1000     0.052562901
       8311.0500     0.050010381
       8313.0000     0.046393671
       8314.9500     0.045969441
       8316.9000     0.036942671
       8318.8500     0.042462491
       8320.8000     0.038912151
       8322.7500     0.039603521
       8324.7000     0.046337461
       8326.6500     0.047267721
       8328.6000     0.055167381
       8330.5500     0.041023581
       8332.5000     0.035950121
       8334.4500     0.061907461
       8336.4000     0.067925571
       8338.3500     0.053221951
       8340.3000     0.046056191
       8342.2500     0.048312511
       8344.2000     0.061614801
       8346.1500     0.058177111
       8348.1000     0.042665161
       8350.0500     0.049340571
       8352.0000     0.056027651
       8353.9500     0.060730651
       8355.9000     0.071026831
       8357.8500     0.064169411
       8359.8000     0.052769641
       8361.7500     0.064345591
       8363.7000     0.073336991
       8365.6500     0.054021901
       8367.6000     0.045508341
       8369.5500     0.047936631
       8371.5000     0.059070731
       8373.4500     0.066728851
       8375.4000     0.077024561
       8377.3500     0.075515351
       8379.3000     0.057799671
       8381.2500     0.074873541
       8383.2000     0.073706211
       8385.1500     0.038066721
       8387.1000     0.059438071
       8389.0500     0.086871141
       8391.0000     0.075127101
       8392.9500     0.071459601
       8394.9000     0.052094311
       8396.8500     0.088715061
       8398.8000     0.096681801
       8400.7500     0.081302961
       8402.7000     0.089685901
       8404.6500     0.089220301
       8406.6000     0.066053701
       8408.5500     0.075911981
       8410.5000     0.092838591
       8412.4500     0.088459831
       8414.4000     0.071676081
       8416.3500     0.058093481
       8418.3000     0.060376481
       8420.2500     0.087743131
       8422.2000     0.072639261
       8424.1500     0.066140131
       8426.1000     0.088078121
       8428.0500     0.079840151
       8430.0000     0.075346831
       8431.9500     0.070741121
       8433.9000     0.056089881
       8435.8500     0.085195641
       8437.8000      0.10139760
       8439.7500     0.085399681
       8441.7000     0.089876381
       8443.6500      0.10599440
       8445.6000     0.098085531
       8447.5500     0.083917901
       8449.5000      0.11242910
       8451.4500      0.11236190
       8453.4000      0.10132170
       8455.3500      0.10739810
       8457.3000     0.083357101
       8459.2500     0.074578821
       8461.2000      0.11097320
       8463.1500      0.13021810
       8465.1000      0.12907800
       8467.0500      0.14719400
       8469.0000      0.13823000
       8470.9500      0.14300340
       8472.9000      0.18005860
       8474.8500      0.17753240
       8476.8000      0.17816630
       8478.7500      0.16955330
       8480.7000      0.17807650
       8482.6500      0.20683770
       8484.6000      0.19509690
       8486.5500      0.19991370
       8488.5000      0.19293630
       8490.4500      0.20276580
       8492.4000      0.24262340
       8494.3500      0.25118650
       8496.3000      0.22756260
       8498.2500      0.20517080
       8500.2000      0.20567870
       8502.1500      0.24798570
       8504.1000      0.25529680
       8506.0500      0.26408960
       8508.0000      0.25099330
       8509.9500      0.22557420
       8511.9000      0.25689200
       8513.8500      0.26750850
       8515.8000      0.28292100
       8517.7500      0.29234520
       8519.7000      0.31821770
       8521.6500      0.33467740
       8523.6000      0.33355790
       8525.5500      0.31520500
       8527.5000      0.30268300
       8529.4500      0.35020271
       8531.4000      0.35792881
       8533.3500      0.38219741
       8535.3000      0.39526721
       8537.2500      0.40959001
