Units are: observed wavelength (Ang), observed flux (10^-15 erg/s/cm^2/Ang)
       3475.0000      0.36191390
       3476.4700      0.30857260
       3477.9400    0.0057659800
       3479.4100      0.18013120
       3480.8800     0.043769420
       3482.3500       1.4922790
       3483.8200       3.3834840
       3485.2900      0.31844380
       3486.7600      0.16157670
       3488.2300     0.097472120
       3489.7000      0.16991380
       3491.1700     0.021884740
       3492.6400      0.16508410
       3494.1100      0.24376980
       3495.5800      0.55225070
       3497.0500      0.65263310
       3498.5201     -0.21798240
       3499.9900     -0.20906070
       3501.4600     0.082770820
       3502.9300    -0.028958980
       3504.4000    0.0014263330
       3505.8700      0.26185800
       3507.3400      0.76430580
       3508.8100      0.38661250
       3510.2800    -0.023936520
       3511.7500      0.30487010
       3513.2200      0.21643110
       3514.6900     -0.29180510
       3516.1600     -0.43992810
       3517.6300   -0.0099387640
       3519.1000     0.046341390
       3520.5700      0.13673470
       3522.0400      0.29649080
       3523.5100      0.24830860
       3524.9800     0.067188150
       3526.4500     -0.16297490
       3527.9200     -0.51961920
       3529.3900     -0.19342610
       3530.8600      0.37921380
       3532.3300      0.27829970
       3533.8000      0.29110950
       3535.2700    -0.078687500
       3536.7400     0.088074870
       3538.2100      0.36162520
       3539.6800    -0.071980700
       3541.1500    0.0099676130
       3542.6200      0.11908480
       3544.0900      0.59306440
       3545.5600      0.13703410
       3547.0300     -0.51232880
       3548.5000     -0.40428700
       3549.9700     -0.15925090
       3551.4400      0.12627230
       3552.9100     0.056203120
       3554.3800     -0.29123460
       3555.8500     -0.21314240
       3557.3200     0.031355840
       3558.7900     0.027646630
       3560.2600    -0.036789670
       3561.7300     -0.11035920
       3563.2000    0.0020821020
       3564.6700     0.055250530
       3566.1400    -0.014514690
       3567.6100     0.052947980
       3569.0800  -0.00067794070
       3570.5500     -0.12999090
       3572.0200      0.20268640
       3573.4900     0.074798860
       3574.9600     0.085905830
       3576.4300      0.13389970
       3577.9000      0.28022330
       3579.3700     0.073273450
       3580.8400      0.13242290
       3582.3100      0.33048410
       3583.7800    -0.065619390
       3585.2500     -0.18965950
       3586.7200     0.069594040
       3588.1900      0.24179730
       3589.6600      0.11267790
       3591.1300      0.42893840
       3592.6000      0.51509740
       3594.0700     0.021546600
       3595.5400     0.075565580
       3597.0100      0.29816940
       3598.4800     0.029348500
       3599.9500    -0.046057160
       3601.4200      0.18883030
       3602.8900     0.069731600
       3604.3600      0.14127010
       3605.8300      0.46810080
       3607.3000    -0.017789730
       3608.7700    -0.021443230
       3610.2400      0.18535710
       3611.7100    -0.052674650
       3613.1800     -0.11488410
       3614.6500     0.020399920
       3616.1200      0.35760940
       3617.5900       1.9661910
       3619.0600      0.66304350
       3620.5300     0.034689840
       3622.0000      0.29305990
       3623.4700     0.092726820
       3624.9400      0.62991890
       3626.4100      0.21136840
       3627.8800   -0.0068097490
       3629.3500     0.048357010
       3630.8200      0.16144040
       3632.2900      0.26501490
       3633.7600      0.18630650
       3635.2300      0.19809570
       3636.7000      0.20019740
       3638.1700      0.29464320
       3639.6400      0.21762520
       3641.1100      0.15016070
       3642.5800      0.43029890
       3644.0500      0.61262710
       3645.5200      0.19756200
       3646.9900      0.40048700
       3648.4600      0.61656490
       3649.9300      0.42387690
       3651.4000    -0.029046730
       3652.8700    -0.015310210
       3654.3400    -0.040581360
       3655.8100      0.10263420
       3657.2800      0.23248310
       3658.7500      0.33529920
       3660.2200     0.066276130
       3661.6900     0.062830020
       3663.1600      0.31873620
       3664.6300      0.19625710
       3666.1000    -0.060025300
       3667.5700      0.11400020
       3669.0400      0.16165610
       3670.5100      0.15653780
       3671.9800      0.32621080
       3673.4500      0.39130260
       3674.9200      0.21615900
       3676.3900      0.12000860
       3677.8600      0.35239220
       3679.3300      0.43773140
       3680.8000      0.22899400
       3682.2700      0.13683060
       3683.7400      0.28467640
       3685.2100      0.13784320
       3686.6800      0.18111160
       3688.1500      0.10830330
       3689.6200      0.87074450
       3691.0900      0.37347230
       3692.5600     -0.11098920
       3694.0300      0.11526570
       3695.5000      0.26551140
       3696.9700      0.15146870
       3698.4400      0.26736140
       3699.9100      0.26705800
       3701.3800      0.14444210
       3702.8500      0.10033870
       3704.3200      0.17591620
       3705.7900      0.13592460
       3707.2600      0.38049560
       3708.7300     0.093818130
       3710.2000      0.15800850
       3711.6700      0.15406960
       3713.1400     0.059842710
       3714.6100      0.13382830
       3716.0800      0.42003780
       3717.5500      0.24295040
       3719.0200      0.15055890
       3720.4900      0.36871190
       3721.9600      0.34639140
       3723.4300    -0.084202540
       3724.9000     0.026304160
       3726.3700      0.12841120
       3727.8400      0.40008340
       3729.3100      0.48569010
       3730.7800     -0.12643100
       3732.2500     0.062715440
       3733.7200     0.046808520
       3735.1900     0.053020430
       3736.6600      0.11890020
       3738.1300      0.33354020
       3739.6000      0.19768960
       3741.0700    -0.023331300
       3742.5400      0.43321500
       3744.0100      0.59950070
       3745.4800      0.31240190
       3746.9500      0.26281930
       3748.4200      0.16280670
       3749.8900      0.18408330
       3751.3600      0.16715440
       3752.8300      0.12080830
       3754.3000      0.18678770
       3755.7700      0.14424620
       3757.2400      0.10625720
       3758.7100      0.27151300
       3760.1800      0.21023490
       3761.6500      0.24834310
       3763.1200     0.073237660
       3764.5900     0.082724300
       3766.0600      0.22097530
       3767.5300      0.23828350
       3769.0000      0.30489450
       3770.4700      0.34465030
       3771.9400     0.058878030
       3773.4100      0.20932880
       3774.8800      0.44186160
       3776.3500      0.24101150
       3777.8200      0.27785570
       3779.2900      0.15804940
       3780.7600      0.15282790
       3782.2300   0.00080948140
       3783.7000     0.054843490
       3785.1700      0.21311310
       3786.6400      0.23701480
       3788.1100     0.029694440
       3789.5800     0.093322310
       3791.0500      0.16429390
       3792.5200      0.16865510
       3793.9900      0.12104180
       3795.4600      0.19674460
       3796.9300     0.061533180
       3798.4000      0.31443370
       3799.8700      0.13270620
       3801.3400     0.051440010
       3802.8100      0.16530130
       3804.2800      0.29511500
       3805.7500      0.38190640
       3807.2200      0.28767970
       3808.6900      0.17789170
       3810.1600      0.17223050
       3811.6301      0.32980430
       3813.1000      0.11455960
       3814.5700     0.084399970
       3816.0400     0.083662840
       3817.5100     0.080235570
       3818.9800     0.032109300
       3820.4500      0.12581260
       3821.9200      0.14346190
       3823.3900    -0.036782990
       3824.8600     0.088388050
       3826.3300      0.15148260
       3827.8000      0.14087890
       3829.2700      0.26813280
       3830.7400      0.18308940
       3832.2100      0.20454730
       3833.6800      0.19491860
       3835.1500      0.41628330
       3836.6200      0.13177790
       3838.0900     0.048336750
       3839.5600      0.10302710
       3841.0300      0.10875660
       3842.5000     0.071095820
       3843.9700     0.050713010
       3845.4400     0.046133840
       3846.9100      0.12178240
       3848.3800      0.17300810
       3849.8500      0.13239120
       3851.3200      0.24105520
       3852.7900      0.26084520
       3854.2600      0.22320470
       3855.7300      0.13922590
       3857.2000      0.14944410
       3858.6700      0.20415490
       3860.1400     0.045979220
       3861.6100     0.023721870
       3863.0800     0.086921420
       3864.5500     0.024124920
       3866.0200      0.24708170
       3867.4900      0.19895650
       3868.9600      0.19069590
       3870.4300      0.37106260
       3871.9000      0.33758990
       3873.3700      0.26143810
       3874.8400      0.19165240
       3876.3100      0.24511450
       3877.7800      0.16041360
       3879.2500      0.18015320
       3880.7200      0.30733780
       3882.1900      0.37261050
       3883.6600      0.11883840
       3885.1300      0.21718340
       3886.6000      0.21011210
       3888.0700      0.17188100
       3889.5400     0.072558930
       3891.0100      0.11690290
       3892.4800      0.19935610
       3893.9500      0.17277260
       3895.4200      0.30194970
       3896.8900      0.13650670
       3898.3600      0.18369470
       3899.8300      0.46113810
       3901.3000      0.19025900
       3902.7700      0.13104800
       3904.2400      0.33752880
       3905.7100      0.34495850
       3907.1800      0.22298600
       3908.6500      0.27316800
       3910.1200      0.19555370
       3911.5900      0.31261370
       3913.0600      0.42450560
       3914.5300      0.40830730
       3916.0000      0.20411970
       3917.4700      0.39316620
       3918.9400      0.33657890
       3920.4100      0.24019410
       3921.8800      0.40162890
       3923.3500      0.30231620
       3924.8200      0.37784220
       3926.2900      0.29026480
       3927.7600      0.15919900
       3929.2300      0.18774660
       3930.7000      0.40593790
       3932.1700      0.43063350
       3933.6400      0.18429780
       3935.1100      0.34831620
       3936.5800      0.42059620
       3938.0500      0.31859470
       3939.5200      0.21837100
       3940.9900      0.26704620
       3942.4600      0.43289190
       3943.9300      0.44542260
       3945.4000      0.35503760
       3946.8700      0.26427770
       3948.3400      0.35434720
       3949.8100      0.53591310
       3951.2800      0.32481150
       3952.7500      0.41787250
       3954.2200      0.45291070
       3955.6900      0.26845220
       3957.1600      0.27919090
       3958.6300      0.39071290
       3960.1000      0.51149730
       3961.5700      0.41860920
       3963.0400      0.32232000
       3964.5100      0.40005670
       3965.9800      0.31163640
       3967.4500      0.21812110
       3968.9200      0.29931500
       3970.3900      0.62798630
       3971.8600      0.52583250
       3973.3300      0.47110880
       3974.8000      0.37838060
       3976.2700      0.28924970
       3977.7400      0.39940660
       3979.2100      0.45616360
       3980.6800      0.46233510
       3982.1500      0.44823440
       3983.6200      0.31640770
       3985.0900      0.25739450
       3986.5600      0.27750360
       3988.0300      0.47915200
       3989.5000      0.64580570
       3990.9700      0.64040460
       3992.4400      0.45846440
       3993.9100      0.39535420
       3995.3800      0.31340280
       3996.8500      0.35539020
       3998.3200      0.45232930
       3999.7900      0.31219250
       4001.2600      0.45572650
       4002.7300      0.26201200
       4004.2000      0.46102730
       4005.6700      0.39471430
       4007.1400      0.31207530
       4008.6100      0.64193060
       4010.0800      0.51415410
       4011.5500      0.32925520
       4013.0200      0.28046910
       4014.4900      0.48265530
       4015.9600      0.57101050
       4017.4300      0.46872780
       4018.9000      0.46646030
       4020.3700      0.53326240
       4021.8400      0.45114860
       4023.3100      0.35347090
       4024.7800      0.39366920
       4026.2500      0.41004160
       4027.7200      0.39619420
       4029.1900      0.31342970
       4030.6600      0.29204650
       4032.1300      0.35595260
       4033.6000      0.45211260
       4035.0700      0.46050920
       4036.5400      0.52074440
       4038.0100      0.44401370
       4039.4800      0.49842280
       4040.9500      0.46816430
       4042.4200      0.70469830
       4043.8900      0.35728340
       4045.3600      0.51487270
       4046.8300      0.50850710
       4048.3000      0.41635650
       4049.7700      0.43360980
       4051.2400      0.43458070
       4052.7100      0.40369110
       4054.1800      0.46094800
       4055.6500      0.48424280
       4057.1200      0.39620090
       4058.5900      0.29228330
       4060.0600      0.34712750
       4061.5300      0.49087230
       4063.0000      0.37255920
       4064.4700      0.36154300
       4065.9400      0.40927370
       4067.4100      0.44946780
       4068.8800      0.44139750
       4070.3500      0.43306740
       4071.8200      0.42572600
       4073.2900      0.45780990
       4074.7600      0.41891880
       4076.2300      0.41205430
       4077.7000      0.33153840
       4079.1700      0.38698340
       4080.6400      0.36818810
       4082.1100      0.29003550
       4083.5800      0.35791230
       4085.0500      0.41493560
       4086.5200      0.48954800
       4087.9900      0.41252780
       4089.4600      0.35559440
       4090.9300      0.40488870
       4092.4000      0.26790170
       4093.8700      0.24594580
       4095.3400      0.37802170
       4096.8100      0.43109670
       4098.2800      0.47604420
       4099.7500      0.45377810
       4101.2200      0.36384180
       4102.6900      0.37079380
       4104.1600      0.31555830
       4105.6300      0.27070700
       4107.1000      0.36815630
       4108.5700      0.37484740
       4110.0400      0.34691760
       4111.5100      0.29749370
       4112.9800      0.24217300
       4114.4500      0.30107590
       4115.9200      0.28000100
       4117.3900      0.20766270
       4118.8600      0.24736460
       4120.3300      0.22960440
       4121.8000      0.23868930
       4123.2700      0.27738610
       4124.7399      0.29975950
       4126.2100      0.32251390
       4127.6800      0.21178360
       4129.1500      0.14785710
       4130.6200      0.29354970
       4132.0900      0.33109830
       4133.5600      0.25188100
       4135.0300      0.21921520
       4136.5000      0.19119080
       4137.9700      0.20651250
       4139.4400      0.24766500
       4140.9100      0.34125810
       4142.3800      0.38028710
       4143.8500      0.31815400
       4145.3200      0.30532780
       4146.7900      0.36071830
       4148.2600      0.25649810
       4149.7300      0.23111770
       4151.2000      0.34154120
       4152.6700      0.33772940
       4154.1400      0.33142380
       4155.6100      0.33760830
       4157.0800      0.26102540
       4158.5500      0.28158460
       4160.0200      0.30355420
       4161.4900      0.31694680
       4162.9600      0.30881710
       4164.4300      0.18282350
       4165.9000      0.19432390
       4167.3700      0.17169690
       4168.8400      0.16835300
       4170.3100      0.26578050
       4171.7800      0.33166810
       4173.2500      0.25122220
       4174.7200      0.25711270
       4176.1900      0.32529810
       4177.6600      0.30751470
       4179.1300      0.24165450
       4180.6000      0.19047860
       4182.0700      0.19973620
       4183.5400      0.29161770
       4185.0100      0.29012580
       4186.4800      0.26516760
       4187.9500      0.24712470
       4189.4200      0.17392090
       4190.8900      0.21792580
       4192.3600      0.23524270
       4193.8300      0.20675600
       4195.3000      0.19387820
       4196.7700      0.15583630
       4198.2400      0.22341630
       4199.7100      0.28068960
       4201.1800      0.21419490
       4202.6500      0.14259230
       4204.1200      0.21093230
       4205.5900      0.20276080
       4207.0600      0.19136020
       4208.5300      0.21476460
       4210.0000      0.20291180
       4211.4700      0.19053560
       4212.9400      0.26493090
       4214.4100      0.27934510
       4215.8800      0.25138890
       4217.3500      0.22721270
       4218.8200      0.24200890
       4220.2900      0.21415640
       4221.7600      0.20110260
       4223.2300      0.21538540
       4224.7000      0.21047950
       4226.1700      0.28875090
       4227.6400      0.25351860
       4229.1100      0.21294080
       4230.5800      0.26366390
       4232.0500      0.26330570
       4233.5200      0.25746800
       4234.9900      0.27337990
       4236.4600      0.23783310
       4237.9300      0.20905680
       4239.4000      0.26048840
       4240.8700      0.25758030
       4242.3400      0.26295720
       4243.8100      0.26608440
       4245.2800      0.22859500
       4246.7500      0.24749740
       4248.2200      0.25173980
       4249.6900      0.31398930
       4251.1600      0.29993880
       4252.6300      0.24575920
       4254.1000      0.26075120
       4255.5700      0.25575690
       4257.0400      0.25327700
       4258.5100      0.30077080
       4259.9800      0.32354160
       4261.4500      0.27679040
       4262.9200      0.24121150
       4264.3900      0.28192010
       4265.8600      0.27231550
       4267.3300      0.23752950
       4268.8000      0.27000150
       4270.2700      0.27031070
       4271.7400      0.26686580
       4273.2100      0.24927200
       4274.6800      0.26345870
       4276.1500      0.23597220
       4277.6200      0.29301440
       4279.0900      0.26891530
       4280.5600      0.21512460
       4282.0300      0.21274600
       4283.5000      0.26282000
       4284.9700      0.27740320
       4286.4400      0.23686420
       4287.9100      0.23025010
       4289.3800      0.28081660
       4290.8500      0.29601700
       4292.3200      0.30563830
       4293.7900      0.31665020
       4295.2600      0.28298620
       4296.7300      0.29385580
       4298.2000      0.30667100
       4299.6700      0.29851480
       4301.1400      0.26450710
       4302.6100      0.27645960
       4304.0800      0.27119540
       4305.5500      0.27901630
       4307.0200      0.30632080
       4308.4900      0.29072590
       4309.9600      0.27515230
       4311.4300      0.28609960
       4312.9000      0.27424420
       4314.3700      0.31129010
       4315.8400      0.23528220
       4317.3100      0.24476820
       4318.7800      0.26382760
       4320.2500      0.29524810
       4321.7200      0.27327730
       4323.1900      0.28789150
       4324.6600      0.27638470
       4326.1300      0.25474530
       4327.6000      0.29088260
       4329.0700      0.28710780
       4330.5400      0.26102450
       4332.0100      0.28563840
       4333.4800      0.28351500
       4334.9500      0.27686290
       4336.4200      0.23423740
       4337.8900      0.25728790
       4339.3600      0.26598790
       4340.8300      0.25889590
       4342.3000      0.31302350
       4343.7700      0.30317090
       4345.2400      0.25765460
       4346.7100      0.29338290
       4348.1800      0.28850840
       4349.6500      0.29855980
       4351.1200      0.25728520
       4352.5900      0.27923350
       4354.0600      0.29663090
       4355.5300      0.27462570
       4357.0000      0.24753490
       4358.4700      0.29564480
       4359.9400      0.28555300
       4361.4100      0.28983150
       4362.8800      0.34051360
       4364.3500      0.29150230
       4365.8200      0.29686650
       4367.2900      0.32690980
       4368.7600      0.26168850
       4370.2300      0.28437680
       4371.7000      0.29005850
       4373.1700      0.26655990
       4374.6400      0.25123500
       4376.1100      0.25518070
       4377.5800      0.29732790
       4379.0500      0.32033360
       4380.5200      0.32838970
       4381.9900      0.28297620
       4383.4600      0.28047180
       4384.9300      0.30193620
       4386.4000      0.31961750
       4387.8700      0.29587640
       4389.3400      0.30439890
       4390.8100      0.25061710
       4392.2800      0.27893130
       4393.7500      0.32075100
       4395.2200      0.29322480
       4396.6900      0.26952850
       4398.1600      0.32618730
       4399.6300      0.34846170
       4401.1000      0.30031870
       4402.5700      0.27736450
       4404.0400      0.26819120
       4405.5100      0.28642810
       4406.9800      0.27731920
       4408.4500      0.25150610
       4409.9200      0.23331570
       4411.3900      0.25524370
       4412.8600      0.26269260
       4414.3300      0.28556510
       4415.8000      0.28605160
       4417.2700      0.29322710
       4418.7400      0.26853830
       4420.2100      0.29479430
       4421.6800      0.30890150
       4423.1500      0.26500140
       4424.6200      0.31128550
       4426.0900      0.27307260
       4427.5600      0.27702530
       4429.0300      0.27900280
       4430.5000      0.26808400
       4431.9700      0.29405970
       4433.4400      0.26124810
       4434.9100      0.26609770
       4436.3800      0.29529050
       4437.8499      0.30135070
       4439.3200      0.25627980
       4440.7900      0.24608270
       4442.2600      0.25357130
       4443.7300      0.21819250
       4445.2000      0.24107660
       4446.6700      0.25249890
       4448.1400      0.24185710
       4449.6100      0.26329220
       4451.0800      0.26178000
       4452.5500      0.22658150
       4454.0200      0.27178750
       4455.4900      0.26588750
       4456.9600      0.24382840
       4458.4300      0.23476210
       4459.9000      0.24671020
       4461.3700      0.25238620
       4462.8400      0.21905670
       4464.3100      0.23444040
       4465.7800      0.24560480
       4467.2500      0.26332510
       4468.7200      0.29362030
       4470.1900      0.26643950
       4471.6600      0.25735940
       4473.1300      0.25000070
       4474.6000      0.28657870
       4476.0700      0.26100000
       4477.5400      0.25264170
       4479.0100      0.29726590
       4480.4800      0.27016490
       4481.9500      0.23457170
       4483.4200      0.26368530
       4484.8900      0.27349500
       4486.3600      0.25804320
       4487.8300      0.23076300
       4489.3000      0.27192860
       4490.7700      0.29900610
       4492.2400      0.28489210
       4493.7100      0.31306200
       4495.1800      0.28494440
       4496.6500      0.29258840
       4498.1200      0.31122210
       4499.5900      0.28447750
       4501.0600      0.30012070
       4502.5300      0.30996490
       4504.0000      0.31600140
       4505.4700      0.33001430
       4506.9400      0.30974850
       4508.4100      0.30762710
       4509.8800      0.32882710
       4511.3500      0.34340410
       4512.8200      0.33444410
       4514.2900      0.36287450
       4515.7600      0.39556220
       4517.2300      0.33016320
       4518.7000      0.33154790
       4520.1700      0.38209690
       4521.6400      0.36393530
       4523.1100      0.39449020
       4524.5800      0.36934390
       4526.0500      0.38965520
       4527.5200      0.41829700
       4528.9900      0.37428880
       4530.4600      0.40451070
       4531.9300      0.39639960
       4533.4000      0.41611010
       4534.8700      0.42105590
       4536.3400      0.42582920
       4537.8100      0.42134200
       4539.2800      0.43498960
       4540.7500      0.42682870
       4542.2200      0.41468960
       4543.6900      0.47302670
       4545.1600      0.46673300
       4546.6300      0.43507060
       4548.1000      0.45192630
       4549.5700      0.46803760
       4551.0400      0.45091070
       4552.5100      0.45611430
       4553.9800      0.48732400
       4555.4500      0.50019250
       4556.9200      0.46792950
       4558.3900      0.44713550
       4559.8600      0.50044070
       4561.3300      0.49820890
       4562.8000      0.50781300
       4564.2700      0.49695360
       4565.7400      0.48881420
       4567.2100      0.52516060
       4568.6800      0.53749280
       4570.1500      0.50375770
       4571.6200      0.48157960
       4573.0900      0.50266990
       4574.5600      0.49922980
       4576.0300      0.48149440
       4577.5000      0.48515760
       4578.9700      0.54312880
       4580.4400      0.55593560
       4581.9100      0.53512410
       4583.3800      0.50869700
       4584.8500      0.53509870
       4586.3200      0.55195650
       4587.7900      0.54065160
       4589.2600      0.51370200
       4590.7300      0.46924950
       4592.2000      0.51914880
       4593.6700      0.51089720
       4595.1400      0.50520080
       4596.6100      0.51382550
       4598.0800      0.53912250
       4599.5500      0.54615050
       4601.0200      0.52261740
       4602.4900      0.54713140
       4603.9600      0.52431770
       4605.4300      0.49326850
       4606.9000      0.49381210
       4608.3700      0.48973400
       4609.8400      0.48463660
       4611.3100      0.47132390
       4612.7800      0.48780620
       4614.2500      0.53742820
       4615.7200      0.53513560
       4617.1900      0.49706850
       4618.6600      0.48404800
       4620.1300      0.48673630
       4621.6000      0.49504850
       4623.0700      0.50174820
       4624.5400      0.48222980
       4626.0100      0.45065630
       4627.4800      0.52105120
       4628.9500      0.50469290
       4630.4200      0.51085850
       4631.8900      0.54811850
       4633.3600      0.53261730
       4634.8300      0.48831220
       4636.3000      0.49937640
       4637.7700      0.51931760
       4639.2400      0.45917110
       4640.7100      0.46218640
       4642.1800      0.52055510
       4643.6500      0.49618180
       4645.1200      0.51602510
       4646.5900      0.47802960
       4648.0600      0.49083490
       4649.5300      0.48828560
       4651.0000      0.49430940
       4652.4700      0.48125870
       4653.9400      0.51696620
       4655.4100      0.45738320
       4656.8800      0.48902020
       4658.3500      0.53581050
       4659.8200      0.49870960
       4661.2900      0.45963580
       4662.7600      0.46593500
       4664.2300      0.44672180
       4665.7000      0.44382830
       4667.1700      0.45662750
       4668.6400      0.49706030
       4670.1100      0.49926600
       4671.5800      0.43166740
       4673.0500      0.43738950
       4674.5200      0.42004590
       4675.9900      0.47383280
       4677.4600      0.47945390
       4678.9300      0.44541710
       4680.4000      0.45157720
       4681.8700      0.41747430
       4683.3400      0.41303650
       4684.8100      0.44177090
       4686.2800      0.40812420
       4687.7500      0.40918270
       4689.2200      0.42889810
       4690.6900      0.46408010
       4692.1600      0.42269640
       4693.6300      0.40455070
       4695.1000      0.40616170
       4696.5700      0.40891740
       4698.0400      0.39565960
       4699.5100      0.43795140
       4700.9800      0.44685910
       4702.4500      0.40811760
       4703.9200      0.43425730
       4705.3900      0.45828380
       4706.8600      0.47994790
       4708.3300      0.42704460
       4709.8000      0.42635900
       4711.2700      0.39225600
       4712.7400      0.39428420
       4714.2100      0.43766760
       4715.6800      0.41291780
       4717.1500      0.38947710
       4718.6200      0.37034950
       4720.0900      0.38372860
       4721.5600      0.43320960
       4723.0300      0.45771880
       4724.5000      0.42931500
       4725.9700      0.39514550
       4727.4400      0.37811660
       4728.9100      0.35041140
       4730.3800      0.38787860
       4731.8500      0.37657790
       4733.3200      0.33506000
       4734.7900      0.38635470
       4736.2600      0.37484270
       4737.7300      0.39441520
       4739.2000      0.35978740
       4740.6700      0.37479970
       4742.1400      0.41636400
       4743.6100      0.37716380
       4745.0800      0.36831840
       4746.5500      0.35851520
       4748.0200      0.32992340
       4749.4900      0.36525220
       4750.9599      0.36075720
       4752.4300      0.35736050
       4753.9000      0.41007850
       4755.3700      0.38578600
       4756.8400      0.35021690
       4758.3100      0.39870070
       4759.7800      0.43889590
       4761.2500      0.38336730
       4762.7200      0.37548260
       4764.1900      0.35398490
       4765.6600      0.37409120
       4767.1300      0.37263320
       4768.6000      0.36898110
       4770.0700      0.38185920
       4771.5400      0.36448680
       4773.0100      0.37483000
       4774.4800      0.38767820
       4775.9500      0.37935820
       4777.4200      0.35194170
       4778.8900      0.38148730
       4780.3600      0.36278180
       4781.8300      0.36860730
       4783.3000      0.38076640
       4784.7700      0.39643300
       4786.2400      0.36186920
       4787.7100      0.35426970
       4789.1800      0.33029040
       4790.6500      0.35103550
       4792.1200      0.33069940
       4793.5900      0.34329260
       4795.0600      0.36012680
       4796.5300      0.35118460
       4798.0000      0.32281460
       4799.4700      0.33118760
       4800.9400      0.34257760
       4802.4100      0.35834950
       4803.8800      0.37154970
       4805.3500      0.33610280
       4806.8200      0.32726000
       4808.2900      0.33338820
       4809.7600      0.34034520
       4811.2300      0.32664160
       4812.7000      0.32752340
       4814.1700      0.31952790
       4815.6400      0.29407890
       4817.1100      0.32773550
       4818.5800      0.33044760
       4820.0500      0.33291990
       4821.5200      0.30058710
       4822.9900      0.28208150
       4824.4600      0.28306970
       4825.9300      0.29293990
       4827.4000      0.28248070
       4828.8700      0.30293620
       4830.3400      0.29076880
       4831.8100      0.26288900
       4833.2800      0.29380710
       4834.7500      0.28984760
       4836.2200      0.29798470
       4837.6900      0.29285060
       4839.1600      0.29158320
       4840.6300      0.27670550
       4842.1000      0.26597120
       4843.5700      0.27733720
       4845.0400      0.32018660
       4846.5100      0.31301800
       4847.9800      0.25533060
       4849.4500      0.24059820
       4850.9200      0.29568520
       4852.3900      0.31827840
       4853.8600      0.29032330
       4855.3300      0.29300470
       4856.8000      0.35491810
       4858.2700      0.32765220
       4859.7400      0.30625320
       4861.2100      0.30221120
       4862.6800      0.30596000
       4864.1500      0.34332390
       4865.6200      0.33007120
       4867.0900      0.33800370
       4868.5600      0.28540860
       4870.0300      0.28546810
       4871.5000      0.35503710
       4872.9700      0.34391900
       4874.4400      0.34433190
       4875.9100      0.35825610
       4877.3800      0.36584510
       4878.8500      0.38658150
       4880.3200      0.40385540
       4881.7900      0.44297530
       4883.2600      0.44535800
       4884.7300      0.41017020
       4886.2000      0.43957550
       4887.6700      0.38428690
       4889.1400      0.36149750
       4890.6100      0.35971910
       4892.0800      0.40362100
       4893.5500      0.42645980
       4895.0200      0.42871690
       4896.4900      0.36358450
       4897.9600      0.33897110
       4899.4300      0.37031280
       4900.9000      0.39614500
       4902.3700      0.35854060
       4903.8400      0.33989670
       4905.3100      0.38555540
       4906.7800      0.41017630
       4908.2500      0.36424310
       4909.7200      0.36292760
       4911.1900      0.39342290
       4912.6600      0.38393110
       4914.1300      0.39684460
       4915.6000      0.35775700
       4917.0700      0.36853550
       4918.5400      0.36094240
       4920.0100      0.34390560
       4921.4800      0.34063460
       4922.9500      0.39325370
       4924.4200      0.37175800
       4925.8900      0.33856270
       4927.3600      0.36317270
       4928.8300      0.35158040
       4930.3000      0.35881060
       4931.7700      0.36605990
       4933.2400      0.34920370
       4934.7100      0.33804320
       4936.1800      0.35247860
       4937.6500      0.36627950
       4939.1200      0.35614120
       4940.5900      0.33521710
       4942.0600      0.33429810
       4943.5300      0.32519630
       4945.0000      0.36111780
       4946.4700      0.31953610
       4947.9400      0.30814680
       4949.4100      0.32328640
       4950.8800      0.37332560
       4952.3500      0.33394960
       4953.8200      0.32716280
       4955.2900      0.32228300
       4956.7600      0.38005060
       4958.2300      0.36873990
       4959.7000      0.34113680
       4961.1700      0.36598450
       4962.6400      0.33653850
       4964.1100      0.36480730
       4965.5800      0.38866150
       4967.0500      0.40794230
       4968.5200      0.37711150
       4969.9900      0.40694220
       4971.4600      0.37996460
       4972.9300      0.39939910
       4974.4000      0.42125240
       4975.8700      0.43520150
       4977.3400      0.43785610
       4978.8100      0.45412070
       4980.2800      0.45429830
       4981.7500      0.44465550
       4983.2200      0.44300830
       4984.6900      0.47332060
       4986.1600      0.47698580
       4987.6300      0.42991310
       4989.1000      0.43801000
       4990.5700      0.46209550
       4992.0400      0.42766640
       4993.5100      0.43244190
       4994.9800      0.47195470
       4996.4500      0.46170360
       4997.9200      0.44862230
       4999.3900      0.45752530
       5000.8600      0.51730100
       5002.3300      0.50425310
       5003.8000      0.50392080
       5005.2700      0.48445700
       5006.7400      0.47314810
       5008.2100      0.47603480
       5009.6800      0.48046940
       5011.1500      0.47448220
       5012.6200      0.46996380
       5014.0900      0.46279980
       5015.5600      0.43332090
       5017.0300      0.44116010
       5018.5000      0.48768800
       5019.9700      0.42731230
       5021.4400      0.40603880
       5022.9100      0.42668370
       5024.3800      0.42447730
       5025.8500      0.41298510
       5027.3200      0.49384830
       5028.7900      0.51745290
       5030.2600      0.50832120
       5031.7300      0.47227700
       5033.2000      0.42312070
       5034.6700      0.38886280
       5036.1400      0.37986350
       5037.6100      0.38609820
       5039.0800      0.36286690
       5040.5500      0.37155580
       5042.0200      0.36358890
       5043.4900      0.34403120
       5044.9600      0.34803170
       5046.4300      0.35040710
       5047.9000      0.34389260
       5049.3700      0.36848610
       5050.8400      0.31594290
       5052.3100      0.31475170
       5053.7800      0.32651730
       5055.2500      0.33074670
       5056.7200      0.30344840
       5058.1900      0.27405150
       5059.6600      0.27967500
       5061.1300      0.28119280
       5062.6000      0.26765560
       5064.0699      0.31151490
       5065.5400      0.30812540
       5067.0100      0.26549350
       5068.4800      0.25908020
       5069.9500      0.26755460
       5071.4200      0.27365330
       5072.8900      0.25933350
       5074.3600      0.27220640
       5075.8300      0.26949070
       5077.3000      0.26787480
       5078.7700      0.28391620
       5080.2400      0.28911970
       5081.7100      0.28374150
       5083.1800      0.26594160
       5084.6500      0.23910410
       5086.1200      0.28757650
       5087.5900      0.29353040
       5089.0600      0.26792340
       5090.5300      0.24982540
       5092.0000      0.29093800
       5093.4700      0.26668600
       5094.9400      0.26750070
       5096.4100      0.26930590
       5097.8800      0.24810580
       5099.3500      0.27671110
       5100.8200      0.26394550
       5102.2900      0.24499390
       5103.7600      0.26271040
       5105.2300      0.25311450
       5106.7000      0.28437580
       5108.1700      0.30237790
       5109.6400      0.30352750
       5111.1100      0.29539870
       5112.5800      0.30129430
       5114.0500      0.30753780
       5115.5200      0.29901140
       5116.9900      0.26705940
       5118.4600      0.31608680
       5119.9300      0.35423140
       5121.4000      0.32220390
       5122.8700      0.32200290
       5124.3400      0.35417560
       5125.8100      0.31869190
       5127.2800      0.34008390
       5128.7500      0.35568230
       5130.2200      0.36384280
       5131.6900      0.35894690
       5133.1600      0.35701730
       5134.6300      0.35932200
       5136.1000      0.37316610
       5137.5700      0.40035330
       5139.0400      0.37438580
       5140.5100      0.38241450
       5141.9800      0.39031220
       5143.4500      0.38643250
       5144.9200      0.37237400
       5146.3900      0.38444450
       5147.8600      0.36756290
       5149.3300      0.38986380
       5150.8000      0.41974450
       5152.2700      0.40484610
       5153.7400      0.37428660
       5155.2100      0.35620220
       5156.6800      0.38283520
       5158.1500      0.40475910
       5159.6200      0.43145900
       5161.0900      0.43515390
       5162.5600      0.40570340
       5164.0300      0.39113160
       5165.5000      0.39151250
       5166.9700      0.40312930
       5168.4400      0.41177790
       5169.9100      0.43157800
       5171.3800      0.40291350
       5172.8500      0.40307340
       5174.3200      0.42100980
       5175.7900      0.43882240
       5177.2600      0.42693940
       5178.7300      0.40012600
       5180.2000      0.41273050
       5181.6700      0.41644080
       5183.1400      0.40267620
       5184.6100      0.44603360
       5186.0800      0.44887460
       5187.5500      0.43790140
       5189.0200      0.42794420
       5190.4900      0.42073120
       5191.9600      0.37501560
       5193.4300      0.38580040
       5194.9000      0.44003080
       5196.3700      0.44358060
       5197.8400      0.42888440
       5199.3100      0.43880480
       5200.7800      0.44310070
       5202.2500      0.42663760
       5203.7200      0.43950660
       5205.1900      0.43052650
       5206.6600      0.43876730
       5208.1300      0.44098260
       5209.6000      0.41084050
       5211.0700      0.44427480
       5212.5400      0.45765690
       5214.0100      0.44383010
       5215.4800      0.46627190
       5216.9500      0.43373660
       5218.4200      0.39719140
       5219.8900      0.43909180
       5221.3600      0.43917320
       5222.8300      0.41606560
       5224.3000      0.45941330
       5225.7700      0.48086700
       5227.2400      0.45509880
       5228.7100      0.44129470
       5230.1800      0.42131800
       5231.6500      0.40437620
       5233.1200      0.42904690
       5234.5900      0.45730810
       5236.0600      0.46864470
       5237.5300      0.46937630
       5239.0000      0.44687720
       5240.4700      0.42573860
       5241.9400      0.42276290
       5243.4100      0.45405880
       5244.8800      0.47903880
       5246.3500      0.45494060
       5247.8200      0.44795350
       5249.2900      0.47228310
       5250.7600      0.49283500
       5252.2300      0.48406490
       5253.7000      0.47537180
       5255.1700      0.48423960
       5256.6400      0.48654870
       5258.1100      0.46476020
       5259.5800      0.41532080
       5261.0500      0.43264060
       5262.5200      0.47382970
       5263.9900      0.44231030
       5265.4600      0.44506660
       5266.9300      0.44443920
       5268.4000      0.44740440
       5269.8700      0.47866770
       5271.3400      0.46557730
       5272.8100      0.45995190
       5274.2800      0.44746620
       5275.7500      0.44451530
       5277.2200      0.42611120
       5278.6900      0.44236000
       5280.1600      0.47690030
       5281.6300      0.49530410
       5283.1000      0.48623560
       5284.5700      0.46871760
       5286.0400      0.46420350
       5287.5100      0.47825040
       5288.9800      0.44816330
       5290.4500      0.44024600
       5291.9200      0.45124780
       5293.3900      0.46049460
       5294.8600      0.48753110
       5296.3300      0.47518770
       5297.8000      0.47952570
       5299.2700      0.50121870
       5300.7400      0.46351750
       5302.2100      0.47432910
       5303.6800      0.48393230
       5305.1500      0.45500220
       5306.6200      0.46407410
       5308.0900      0.47917720
       5309.5600      0.48270850
       5311.0300      0.47553200
       5312.5000      0.48835780
       5313.9700      0.51942250
       5315.4400      0.51628300
       5316.9100      0.47719340
       5318.3800      0.45851540
       5319.8500      0.48711460
       5321.3200      0.46342770
       5322.7900      0.48343430
       5324.2600      0.50345610
       5325.7300      0.47864220
       5327.2000      0.47483350
       5328.6700      0.47310740
       5330.1400      0.48550330
       5331.6100      0.48974900
       5333.0800      0.49358620
       5334.5500      0.49518310
       5336.0200      0.51977040
       5337.4900      0.51967730
       5338.9600      0.51074110
       5340.4300      0.51246150
       5341.9000      0.50007690
       5343.3700      0.49526770
       5344.8400      0.49801300
       5346.3100      0.49695300
       5347.7800      0.49334660
       5349.2500      0.47444490
       5350.7200      0.44874950
       5352.1900      0.45171130
       5353.6600      0.47523350
       5355.1300      0.44422100
       5356.6000      0.45406010
       5358.0700      0.47362950
       5359.5400      0.45867350
       5361.0100      0.47298170
       5362.4800      0.45767460
       5363.9500      0.44900990
       5365.4200      0.45402880
       5366.8900      0.47402100
       5368.3600      0.48994750
       5369.8300      0.48474110
       5371.3000      0.45538640
       5372.7700      0.46893200
       5374.2400      0.46338930
       5375.7100      0.48449760
       5377.1799      0.49107240
       5378.6500      0.46705600
       5380.1200      0.47259700
       5381.5900      0.47389340
       5383.0600      0.45159240
       5384.5300      0.43547290
       5386.0000      0.46314310
       5387.4700      0.47991910
       5388.9400      0.47733590
       5390.4100      0.47544040
       5391.8800      0.46575860
       5393.3500      0.44861240
       5394.8200      0.48503630
       5396.2900      0.45857330
       5397.7600      0.45679280
       5399.2300      0.46464440
       5400.7000      0.45443420
       5402.1700      0.45988350
       5403.6400      0.50090630
       5405.1100      0.48034810
       5406.5800      0.46428740
       5408.0500      0.46177870
       5409.5200      0.48018810
       5410.9900      0.46425520
       5412.4600      0.48288710
       5413.9300      0.48867800
       5415.4000      0.46948870
       5416.8700      0.50414130
       5418.3400      0.48036330
       5419.8100      0.44215740
       5421.2800      0.43712350
       5422.7500      0.44667350
       5424.2200      0.45402900
       5425.6900      0.46310620
       5427.1600      0.46306350
       5428.6300      0.42722170
       5430.1000      0.40170890
       5431.5700      0.39722020
       5433.0400      0.42213320
       5434.5100      0.43337870
       5435.9800      0.42768170
       5437.4500      0.41413300
       5438.9200      0.39838250
       5440.3900      0.41319080
       5441.8600      0.40461670
       5443.3300      0.39764660
       5444.8000      0.38486480
       5446.2700      0.39539140
       5447.7400      0.40707920
       5449.2100      0.38834050
       5450.6800      0.39180860
       5452.1500      0.38044810
       5453.6200      0.40624910
       5455.0900      0.40353150
       5456.5600      0.36305820
       5458.0300      0.37190880
       5459.5000      0.34255330
       5460.9700      0.33676660
       5462.4400      0.36974720
       5463.9100      0.35326000
       5465.3800      0.32696590
       5466.8500      0.35210660
       5468.3200      0.35945360
       5469.7900      0.36520730
       5471.2600      0.37370800
       5472.7300      0.34732290
       5474.2000      0.35354400
       5475.6700      0.34740920
       5477.1400      0.34358600
       5478.6100      0.36688310
       5480.0800      0.38404110
       5481.5500      0.38600780
       5483.0200      0.38033290
       5484.4900      0.36489290
       5485.9600      0.38250960
       5487.4300      0.40863760
       5488.9000      0.41479900
       5490.3700      0.40456510
       5491.8400      0.41686190
       5493.3100      0.41089290
       5494.7800      0.38746400
       5496.2500      0.40731840
       5497.7200      0.40821020
       5499.1900      0.42137680
       5500.6600      0.41513050
       5502.1300      0.44887530
       5503.6000      0.50423990
       5505.0700      0.49438350
       5506.5400      0.47550120
       5508.0100      0.49973220
       5509.4800      0.51038640
       5510.9500      0.47905120
       5512.4200      0.50516620
       5513.8900      0.54971250
       5515.3600      0.54807260
       5516.8300      0.55952410
       5518.3000      0.53526370
       5519.7700      0.52248040
       5521.2400      0.56875120
       5522.7100      0.58866850
       5524.1800      0.60482820
       5525.6500      0.62053780
       5527.1200      0.60636200
       5528.5900      0.58947160
       5530.0600      0.56927660
       5531.5300      0.59929430
       5533.0000      0.66794680
       5534.4700      0.67494770
       5535.9400      0.66751720
       5537.4100      0.65276150
       5538.8800      0.64590470
       5540.3500      0.62947810
       5541.8200      0.62564810
       5543.2900      0.64729170
       5544.7600      0.63674090
       5546.2300      0.64144960
       5547.7000      0.63044330
       5549.1700      0.60956330
       5550.6400      0.59633730
       5552.1100      0.58729880
       5553.5800      0.63664910
       5555.0500      0.64520980
       5556.5200      0.61074590
       5557.9900      0.63086760
       5559.4600      0.63246120
       5560.9300      0.60160250
       5562.4000      0.59427540
       5563.8700      0.60344910
       5565.3400      0.59991660
       5566.8100      0.58359440
       5568.2800      0.58717060
       5569.7500      0.56692560
       5571.2200      0.54781320
       5572.6900      0.56500360
       5574.1600      0.56624800
       5575.6300      0.60639610
       5577.1000      0.65289640
       5578.5700      0.62407600
       5580.0400      0.53555410
       5581.5100      0.49031450
       5582.9800      0.50844140
       5584.4500      0.51570100
       5585.9200      0.50669490
       5587.3900      0.47094810
       5588.8600      0.45100750
       5590.3300      0.47530100
       5591.8000      0.46528570
       5593.2700      0.42910810
       5594.7400      0.40892460
       5596.2100      0.42551240
       5597.6800      0.41487630
       5599.1500      0.40250530
       5600.6200      0.40298820
       5602.0900      0.40453150
       5603.5600      0.40670080
       5605.0300      0.39133320
       5606.5000      0.38069010
       5607.9700      0.39504900
       5609.4400      0.41350900
       5610.9100      0.39263760
       5612.3800      0.38435790
       5613.8500      0.37541150
       5615.3200      0.37649690
       5616.7900      0.38300550
       5618.2600      0.37124990
       5619.7300      0.37568110
       5621.2000      0.38848150
       5622.6700      0.38002380
       5624.1400      0.35984780
       5625.6100      0.39456910
       5627.0800      0.41854480
       5628.5500      0.38162840
       5630.0200      0.37973170
       5631.4900      0.37077460
       5632.9600      0.38126160
       5634.4300      0.41656150
       5635.9000      0.41009600
       5637.3700      0.39947150
       5638.8400      0.41601910
       5640.3100      0.40691380
       5641.7800      0.41169870
       5643.2500      0.39984500
       5644.7200      0.41298430
       5646.1900      0.42225020
       5647.6600      0.42056570
       5649.1300      0.43861090
       5650.6000      0.42575140
       5652.0700      0.40896930
       5653.5400      0.42412050
       5655.0100      0.39712240
       5656.4800      0.41546440
       5657.9500      0.44514990
       5659.4200      0.43077280
       5660.8900      0.43572930
       5662.3600      0.42511560
       5663.8300      0.38964620
       5665.3000      0.38390010
       5666.7700      0.35784430
       5668.2400      0.34938870
       5669.7100      0.38043890
       5671.1800      0.34564860
       5672.6500      0.32332410
       5674.1200      0.34325360
       5675.5900      0.36540770
       5677.0600      0.32745470
       5678.5300      0.29892790
       5680.0000      0.28561770
       5681.4700      0.27229030
       5682.9400      0.25421740
       5684.4100      0.24990580
       5685.8800      0.27654520
       5687.3500      0.26945480
       5688.8200      0.26833210
       5690.2899      0.24201720
       5691.7600      0.24811240
       5693.2300      0.28403240
       5694.7000      0.26101510
       5696.1700      0.26561160
       5697.6400      0.27010360
       5699.1100      0.23860690
       5700.5800      0.23254970
       5702.0500      0.24404080
       5703.5200      0.24785950
       5704.9900      0.19634250
       5706.4600      0.19029170
       5707.9300      0.21667100
       5709.4000      0.22375680
       5710.8700      0.22215610
       5712.3400      0.20771560
       5713.8100      0.22452410
       5715.2800      0.20442080
       5716.7500      0.20575670
       5718.2200      0.20478820
       5719.6900      0.20808890
       5721.1600      0.22580530
       5722.6300      0.22090310
       5724.1000      0.21856440
       5725.5700      0.21407630
       5727.0400      0.21038260
       5728.5100      0.20598580
       5729.9800      0.17509240
       5731.4500      0.20459740
       5732.9200      0.21872350
       5734.3900      0.20679800
       5735.8600      0.20232750
       5737.3300      0.20391140
       5738.8000      0.19065360
       5740.2700      0.16671330
       5741.7400      0.17127360
       5743.2100      0.15947940
       5744.6800      0.16105920
       5746.1500      0.18157610
       5747.6200      0.18753390
       5749.0900      0.19205380
       5750.5600      0.16883240
       5752.0300      0.17000890
       5753.5000      0.17812990
       5754.9700      0.16733460
       5756.4400      0.17475400
       5757.9100      0.18218680
       5759.3800      0.17027600
       5760.8500      0.16661520
       5762.3200      0.17224130
       5763.7900      0.17079940
       5765.2600      0.17477530
       5766.7300      0.17318180
       5768.2000      0.13952870
       5769.6700      0.12937320
       5771.1400      0.12979050
       5772.6100      0.14014210
       5774.0800      0.15909800
       5775.5500      0.15351410
       5777.0200      0.14547020
       5778.4900      0.14904680
       5779.9600      0.18327900
       5781.4300      0.19949890
       5782.9000      0.19122600
       5784.3700      0.17095790
       5785.8400      0.14997000
       5787.3100      0.16787050
       5788.7800      0.18112990
       5790.2500      0.17579830
       5791.7200      0.17729160
       5793.1900      0.19104670
       5794.6600      0.20228280
       5796.1300      0.19815800
       5797.6000      0.19249870
       5799.0700      0.16634820
       5800.5400      0.15657740
       5802.0100      0.17487700
       5803.4800      0.15289660
       5804.9500      0.15205060
       5806.4200      0.18949580
       5807.8900      0.19376510
       5809.3600      0.17960500
       5810.8300      0.18761410
       5812.3000      0.18601430
       5813.7700      0.19142800
       5815.2400      0.20365910
       5816.7100      0.20062740
       5818.1800      0.20796900
       5819.6500      0.19708720
       5821.1200      0.19977850
       5822.5900      0.22215540
       5824.0600      0.23719250
       5825.5300      0.22991990
       5827.0000      0.23095160
       5828.4700      0.22769920
       5829.9400      0.24076700
       5831.4100      0.23598400
       5832.8800      0.23764850
       5834.3500      0.24052570
       5835.8200      0.25867520
       5837.2900      0.27711260
       5838.7600      0.25542320
       5840.2300      0.26898950
       5841.7000      0.28129170
       5843.1700      0.30367330
       5844.6400      0.33224340
       5846.1100      0.29355940
       5847.5800      0.27715410
       5849.0500      0.28641680
       5850.5200      0.31615050
       5851.9900      0.33309280
       5853.4600      0.33193200
       5854.9300      0.34422220
       5856.4000      0.33636480
       5857.8700      0.34901060
       5859.3400      0.36255200
       5860.8100      0.32681420
       5862.2800      0.33748870
       5863.7500      0.36947340
       5865.2200      0.36118300
       5866.6900      0.36481960
       5868.1600      0.37701470
       5869.6300      0.35943970
       5871.1000      0.35234480
       5872.5700      0.35401880
       5874.0400      0.38806390
       5875.5100      0.39957110
       5876.9800      0.41440440
       5878.4500      0.40829070
       5879.9200      0.39605560
       5881.3900      0.40130850
       5882.8600      0.39494420
       5884.3300      0.41661740
       5885.8000      0.37519890
       5887.2700      0.39014130
       5888.7400      0.40189990
       5890.2100      0.39218120
       5891.6800      0.40906890
       5893.1500      0.41942220
       5894.6200      0.39568950
       5896.0900      0.40854030
       5897.5600      0.43160070
       5899.0300      0.45067540
       5900.5000      0.48486700
       5901.9700      0.46207630
       5903.4400      0.42903430
       5904.9100      0.44836240
       5906.3800      0.45048690
       5907.8500      0.41654280
       5909.3200      0.44932710
       5910.7900      0.45271380
       5912.2600      0.42406880
       5913.7300      0.43252620
       5915.2000      0.43709350
       5916.6700      0.43350100
       5918.1400      0.44120400
       5919.6100      0.45924080
       5921.0800      0.42364150
       5922.5500      0.41277940
       5924.0200      0.43582700
       5925.4900      0.43819750
       5926.9600      0.43446220
       5928.4300      0.42719180
       5929.9000      0.41875720
       5931.3700      0.43792210
       5932.8400      0.45709820
       5934.3100      0.43974780
       5935.7800      0.42521070
       5937.2500      0.42915060
       5938.7200      0.43401880
       5940.1900      0.44033470
       5941.6600      0.43005850
       5943.1300      0.39378980
       5944.6000      0.38359740
       5946.0700      0.39169830
       5947.5400      0.40025350
       5949.0100      0.39036980
       5950.4800      0.38531030
       5951.9500      0.40631510
       5953.4200      0.42134890
       5954.8900      0.41207490
       5956.3600      0.39792060
       5957.8300      0.40431870
       5959.3000      0.40735490
       5960.7700      0.40593830
       5962.2400      0.39099230
       5963.7100      0.38880480
       5965.1800      0.40596570
       5966.6500      0.40805540
       5968.1200      0.39961650
       5969.5900      0.38152930
       5971.0600      0.36485700
       5972.5300      0.35954570
       5974.0000      0.37043190
       5975.4700      0.38756950
       5976.9400      0.39824720
       5978.4100      0.37927100
       5979.8800      0.35737400
       5981.3500      0.35754370
       5982.8200      0.35569470
       5984.2900      0.38105730
       5985.7600      0.39996370
       5987.2300      0.37383710
       5988.7000      0.35980620
       5990.1700      0.37259300
       5991.6400      0.37885170
       5993.1100      0.34792450
       5994.5800      0.33977680
       5996.0500      0.36166740
       5997.5200      0.35822940
       5998.9900      0.37890900
       6000.4600      0.40874430
       6001.9300      0.38690080
       6003.3999      0.35225580
       6004.8700      0.35956250
       6006.3400      0.36427450
       6007.8100      0.35194480
       6009.2800      0.33687470
       6010.7500      0.31238630
       6012.2200      0.32120930
       6013.6900      0.33954720
       6015.1600      0.34199530
       6016.6300      0.33939500
       6018.1000      0.34008840
       6019.5700      0.33447490
       6021.0400      0.32831000
       6022.5100      0.33485970
       6023.9800      0.33896850
       6025.4500      0.33378560
       6026.9200      0.32336730
       6028.3900      0.32263810
       6029.8600      0.33622500
       6031.3300      0.32206320
       6032.8000      0.28445960
       6034.2700      0.29508580
       6035.7400      0.32302440
       6037.2100      0.30526900
       6038.6800      0.29786270
       6040.1500      0.31294650
       6041.6200      0.33136160
       6043.0900      0.32177680
       6044.5600      0.31371760
       6046.0300      0.32250060
       6047.5000      0.30250650
       6048.9700      0.29229940
       6050.4400      0.30018540
       6051.9100      0.31167690
       6053.3800      0.31892240
       6054.8500      0.29814290
       6056.3200      0.27933560
       6057.7900      0.29123870
       6059.2600      0.30441610
       6060.7300      0.30126730
       6062.2000      0.29022160
       6063.6700      0.29077690
       6065.1400      0.29085650
       6066.6100      0.28332330
       6068.0800      0.27688040
       6069.5500      0.28638030
       6071.0200      0.27760800
       6072.4900      0.27431790
       6073.9600      0.27763360
       6075.4300      0.28544470
       6076.9000      0.29464000
       6078.3700      0.29652070
       6079.8400      0.27727770
       6081.3100      0.29194370
       6082.7800      0.29461300
       6084.2500      0.28604450
       6085.7200      0.26689590
       6087.1900      0.27223600
       6088.6600      0.27150330
       6090.1300      0.27822820
       6091.6000      0.27706190
       6093.0700      0.27797080
       6094.5400      0.28363250
       6096.0100      0.30258160
       6097.4800      0.29995250
       6098.9500      0.26468800
       6100.4200      0.28044450
       6101.8900      0.30123670
       6103.3600      0.30243820
       6104.8300      0.30279070
       6106.3000      0.29225360
       6107.7700      0.31067000
       6109.2400      0.31650500
       6110.7100      0.30968030
       6112.1800      0.28749580
       6113.6500      0.31075830
       6115.1200      0.30885090
       6116.5900      0.29402630
       6118.0600      0.29932400
       6119.5300      0.30610440
       6121.0000      0.30292460
       6122.4700      0.29847080
       6123.9400      0.31731080
       6125.4100      0.31071390
       6126.8800      0.32050350
       6128.3500      0.31962900
       6129.8200      0.32494550
       6131.2900      0.33441250
       6132.7600      0.33319620
       6134.2300      0.29845480
       6135.7000      0.26653890
       6137.1700      0.29346010
       6138.6400      0.31755280
       6140.1100      0.30531100
       6141.5800      0.29586800
       6143.0500      0.31709170
       6144.5200      0.30914940
       6145.9900      0.29160150
       6147.4600      0.29654970
       6148.9300      0.28964440
       6150.4000      0.30033060
       6151.8700      0.31162490
       6153.3400      0.29448590
       6154.8100      0.29741920
       6156.2800      0.30814200
       6157.7500      0.31959510
       6159.2200      0.31852800
       6160.6900      0.30053620
       6162.1600      0.30496950
       6163.6300      0.30499500
       6165.1000      0.31761820
       6166.5700      0.31529070
       6168.0400      0.27517010
       6169.5100      0.27017610
       6170.9800      0.30294020
       6172.4500      0.30657660
       6173.9200      0.29263220
       6175.3900      0.31116820
       6176.8600      0.33044370
       6178.3300      0.33247310
       6179.8000      0.33964690
       6181.2700      0.33960940
       6182.7400      0.31236510
       6184.2100      0.29120250
       6185.6800      0.30563920
       6187.1500      0.33303450
       6188.6200      0.34168240
       6190.0900      0.32707650
       6191.5600      0.30547480
       6193.0300      0.31806970
       6194.5000      0.37001000
       6195.9700      0.38257170
       6197.4400      0.36582930
       6198.9100      0.37872900
       6200.3800      0.35810940
       6201.8500      0.34364820
       6203.3200      0.40858690
       6204.7900      0.41832040
       6206.2600      0.39716570
       6207.7300      0.41439690
       6209.2000      0.39939730
       6210.6700      0.42736860
       6212.1400      0.47687780
       6213.6100      0.47966670
       6215.0800      0.47815020
       6216.5500      0.48298610
       6218.0200      0.49631520
       6219.4900      0.52733440
       6220.9600      0.55541800
       6222.4300      0.55224990
       6223.9000      0.57605480
       6225.3700      0.59695050
       6226.8400      0.62629350
       6228.3100      0.65266750
       6229.7800      0.67237630
       6231.2500      0.71611510
       6232.7200      0.74257390
       6234.1900      0.78311510
       6235.6600      0.81842520
       6237.1300      0.78949810
       6238.6000      0.79296570
       6240.0700      0.86366290
       6241.5400      0.91469690
       6243.0100      0.89147080
       6244.4800      0.84441760
       6245.9500      0.86546640
       6247.4200      0.90738020
       6248.8900      0.89987510
       6250.3600      0.91439130
       6251.8300      0.95239510
       6253.3000      0.96757900
       6254.7700      0.94594940
       6256.2400      0.94031730
       6257.7100      0.96294860
       6259.1800      0.98925640
       6260.6500      0.98371120
       6262.1200      0.95553660
       6263.5900      0.95883920
       6265.0600      0.96047320
       6266.5300      0.95350100
       6268.0000      0.95876510
       6269.4700      0.96669620
       6270.9400      0.97517720
       6272.4100      0.99836410
       6273.8800       1.0300070
       6275.3500       1.0134530
       6276.8200       1.0281850
       6278.2900       1.0458540
       6279.7600       1.0830580
       6281.2300       1.0797650
       6282.7000       1.0557830
       6284.1700       1.0877600
       6285.6400       1.1048100
       6287.1100       1.1080550
       6288.5800       1.1138140
       6290.0500       1.1256180
       6291.5200       1.1592720
       6292.9900       1.1988720
       6294.4600       1.2308750
       6295.9300       1.2379990
       6297.4000       1.2401190
       6298.8700       1.2107680
       6300.3400       1.1949680
       6301.8100       1.2328050
       6303.2800       1.2417580
       6304.7500       1.2201610
       6306.2200       1.2065630
       6307.6900       1.1924890
       6309.1600       1.1712010
       6310.6300       1.1610780
       6312.1000       1.1892650
       6313.5700       1.1778840
       6315.0400       1.1603440
       6316.5099       1.1983560
       6317.9800       1.1859120
       6319.4500       1.1600700
       6320.9200       1.1799580
       6322.3900       1.1604770
       6323.8600       1.1102860
       6325.3300       1.1173030
       6326.8000       1.1358380
       6328.2700       1.1198000
       6329.7400       1.1117460
       6331.2100       1.1122250
       6332.6800       1.1127300
       6334.1500       1.0918330
       6335.6200       1.0541310
       6337.0900       1.0815060
       6338.5600       1.1020170
       6340.0300       1.0752110
       6341.5000       1.0772100
       6342.9700       1.0754340
       6344.4400       1.0854350
       6345.9100       1.0941880
       6347.3800       1.0957540
       6348.8500       1.0795850
       6350.3200       1.0321230
       6351.7900       1.0076590
       6353.2600      0.99427680
       6354.7300      0.99295200
       6356.2000       1.0165270
       6357.6700      0.99659670
       6359.1400      0.95732140
       6360.6100      0.95227580
       6362.0800      0.99177210
       6363.5500      0.99849800
       6365.0200      0.99807210
       6366.4900      0.99274920
       6367.9600      0.95894320
       6369.4300      0.95883980
       6370.9000      0.94692210
       6372.3700      0.92415520
       6373.8400      0.92510100
       6375.3100      0.93372860
       6376.7800      0.91581250
       6378.2500      0.89436640
       6379.7200      0.90483400
       6381.1900      0.85731850
       6382.6600      0.79568580
       6384.1300      0.82074680
       6385.6000      0.85059580
       6387.0700      0.82053090
       6388.5400      0.78165470
       6390.0100      0.76935960
       6391.4800      0.75943080
       6392.9500      0.73884090
       6394.4200      0.72779940
       6395.8900      0.75035020
       6397.3600      0.76606730
       6398.8300      0.74155480
       6400.3000      0.72577130
       6401.7700      0.71551110
       6403.2400      0.69654010
       6404.7100      0.71213570
       6406.1800      0.71523640
       6407.6500      0.70580580
       6409.1200      0.71091810
       6410.5900      0.68847330
       6412.0600      0.65665410
       6413.5300      0.63570020
       6415.0000      0.65062680
       6416.4700      0.64645860
       6417.9400      0.61826010
       6419.4100      0.62973260
       6420.8800      0.63445880
       6422.3500      0.62378850
       6423.8200      0.61946560
       6425.2900      0.61042260
       6426.7600      0.59277340
       6428.2300      0.59651170
       6429.7000      0.61691140
       6431.1700      0.61763910
       6432.6400      0.58677320
       6434.1100      0.57201010
       6435.5800      0.60115280
       6437.0500      0.59884450
       6438.5200      0.55849970
       6439.9900      0.57107350
       6441.4600      0.58600380
       6442.9300      0.55689760
       6444.4000      0.54642330
       6445.8700      0.54017300
       6447.3400      0.51823290
       6448.8100      0.54719940
       6450.2800      0.56258550
       6451.7500      0.55093340
       6453.2200      0.56870720
       6454.6900      0.52909710
       6456.1600      0.51516060
       6457.6300      0.53679580
       6459.1000      0.51190820
       6460.5700      0.51242940
       6462.0400      0.52849700
       6463.5100      0.50793210
       6464.9800      0.53402270
       6466.4500      0.56576850
       6467.9200      0.52297790
       6469.3900      0.49916260
       6470.8600      0.48323600
       6472.3300      0.48917790
       6473.8000      0.49671160
       6475.2700      0.46879550
       6476.7400      0.48103930
       6478.2100      0.48388310
       6479.6800      0.47041500
       6481.1500      0.48637070
       6482.6200      0.49802880
       6484.0900      0.48433960
       6485.5600      0.45761930
       6487.0300      0.45190990
       6488.5000      0.45349630
       6489.9700      0.48267320
       6491.4400      0.48423780
       6492.9100      0.45396120
       6494.3800      0.46081280
       6495.8500      0.46864550
       6497.3200      0.47153230
       6498.7900      0.47613450
       6500.2600      0.46721400
       6501.7300      0.47667200
       6503.2000      0.49441930
       6504.6700      0.49348770
       6506.1400      0.47518270
       6507.6100      0.45490610
       6509.0800      0.46336370
       6510.5500      0.46607080
       6512.0200      0.46118300
       6513.4900      0.45049100
       6514.9600      0.44852660
       6516.4300      0.43518010
       6517.9000      0.43435560
       6519.3700      0.43108880
       6520.8400      0.41654000
       6522.3100      0.43106210
       6523.7800      0.43966040
       6525.2500      0.41529100
       6526.7200      0.39356300
       6528.1900      0.40528760
       6529.6600      0.40938180
       6531.1300      0.41784270
       6532.6000      0.42940540
       6534.0700      0.40566970
       6535.5400      0.41691210
       6537.0100      0.42262690
       6538.4800      0.37275530
       6539.9500      0.36808120
       6541.4200      0.39101810
       6542.8900      0.38030790
       6544.3600      0.37929680
       6545.8300      0.37601550
       6547.3000      0.34823880
       6548.7700      0.35282170
       6550.2400      0.37981850
       6551.7100      0.37468150
       6553.1800      0.34432110
       6554.6500      0.33192820
       6556.1200      0.34584630
       6557.5900      0.36591460
       6559.0600      0.38315860
       6560.5300      0.37968760
       6562.0000      0.37020910
       6563.4700      0.37398180
       6564.9400      0.38151990
       6566.4100      0.37395480
       6567.8800      0.37204460
       6569.3500      0.36719900
       6570.8200      0.35850480
       6572.2900      0.35924940
       6573.7600      0.36688830
       6575.2300      0.36729600
       6576.7000      0.35492260
       6578.1700      0.36431470
       6579.6400      0.39336680
       6581.1100      0.38203870
       6582.5800      0.35114840
       6584.0500      0.36863680
       6585.5200      0.39903920
       6586.9900      0.39017990
       6588.4600      0.36798860
       6589.9300      0.44953510
       6591.4000      0.59481440
       6592.8700      0.65917390
       6594.3400      0.64513740
       6595.8100      0.54798020
       6597.2800      0.41076450
       6598.7500      0.35280240
       6600.2200      0.35347440
       6601.6900      0.35202710
       6603.1600      0.35621480
       6604.6300      0.37292050
       6606.1000      0.36437570
       6607.5700      0.34357390
       6609.0400      0.35903130
       6610.5100      0.36987720
       6611.9800      0.37716500
       6613.4500      0.40509640
       6614.9200      0.42923540
       6616.3900      0.41286310
       6617.8600      0.37469120
       6619.3300      0.36378470
       6620.8000      0.35869070
       6622.2700      0.35439540
       6623.7400      0.35358590
       6625.2100      0.36000340
       6626.6800      0.35174210
       6628.1500      0.33645760
       6629.6199      0.34702030
       6631.0900      0.35077690
       6632.5600      0.32483970
       6634.0300      0.30030450
       6635.5000      0.30761010
       6636.9700      0.32187240
       6638.4400      0.32562310
       6639.9100      0.32423290
       6641.3800      0.32089050
       6642.8500      0.32678080
       6644.3200      0.32167150
       6645.7900      0.30868490
       6647.2600      0.29758110
       6648.7300      0.29324170
       6650.2000      0.29741630
       6651.6700      0.29106290
       6653.1400      0.29082280
       6654.6100      0.29902880
       6656.0800      0.28888910
       6657.5500      0.27018990
       6659.0200      0.28299170
       6660.4900      0.30526290
       6661.9600      0.31651980
       6663.4300      0.30935080
       6664.9000      0.28587000
       6666.3700      0.27277580
       6667.8400      0.28374200
       6669.3100      0.29653990
       6670.7800      0.28302610
       6672.2500      0.25407740
       6673.7200      0.25964400
       6675.1900      0.28766740
       6676.6600      0.26015710
       6678.1300      0.24260350
       6679.6000      0.28049620
       6681.0700      0.26708750
       6682.5400      0.25128240
       6684.0100      0.27538250
       6685.4800      0.27640620
       6686.9500      0.27262910
       6688.4200      0.27528290
       6689.8900      0.25961460
       6691.3600      0.25911170
       6692.8300      0.27357850
       6694.3000      0.27655600
       6695.7700      0.27840000
       6697.2400      0.26255130
       6698.7100      0.24612570
       6700.1800      0.27664340
       6701.6500      0.28752920
       6703.1200      0.25308440
       6704.5900      0.21885880
       6706.0600      0.22530900
       6707.5300      0.24739980
       6709.0000      0.24956560
       6710.4700      0.26030840
       6711.9400      0.23702830
       6713.4100      0.22906570
       6714.8800      0.23199230
       6716.3500      0.21127130
       6717.8200      0.22450190
       6719.2900      0.24855710
       6720.7600      0.25167610
       6722.2300      0.25476030
       6723.7000      0.24797940
       6725.1700      0.24067370
       6726.6400      0.23866000
       6728.1100      0.23966560
       6729.5800      0.23155680
       6731.0500      0.21301560
       6732.5200      0.20995120
       6733.9900      0.25624280
       6735.4600      0.27463660
       6736.9300      0.21743490
       6738.4000      0.21237320
       6739.8700      0.24285960
       6741.3400      0.21586780
       6742.8100      0.20349410
       6744.2800      0.23840680
       6745.7500      0.27737950
       6747.2200      0.29878480
       6748.6900      0.27984650
       6750.1600      0.25441790
       6751.6300      0.23961150
       6753.1000      0.21844940
       6754.5700      0.20900170
       6756.0400      0.20091160
       6757.5100      0.21657830
       6758.9800      0.24221310
       6760.4500      0.24843430
       6761.9200      0.25413290
       6763.3900      0.24940640
       6764.8600      0.24524280
       6766.3300      0.24741600
       6767.8000      0.23692270
       6769.2700      0.21159720
       6770.7400      0.21144840
       6772.2100      0.21870100
       6773.6800      0.23262270
       6775.1500      0.23960940
       6776.6200      0.21632140
       6778.0900      0.20185000
       6779.5600      0.19115370
       6781.0300      0.21316280
       6782.5000      0.22661450
       6783.9700      0.21648280
       6785.4400      0.20858690
       6786.9100      0.20328170
       6788.3800      0.20603890
       6789.8500      0.19493990
       6791.3200      0.19580380
       6792.7900      0.18927570
       6794.2600      0.18709680
       6795.7300      0.20559960
       6797.2000      0.22041560
       6798.6700      0.22173260
       6800.1400      0.20014730
       6801.6100      0.19501340
       6803.0800      0.22665010
       6804.5500      0.22970750
       6806.0200      0.20468390
       6807.4900      0.21451660
       6808.9600      0.22968630
       6810.4300      0.22625010
       6811.9000      0.21733900
       6813.3700      0.21751340
       6814.8400      0.22292660
       6816.3100      0.21660230
       6817.7800      0.20782120
       6819.2500      0.20238980
       6820.7200      0.19723210
       6822.1900      0.19072050
       6823.6600      0.20179840
       6825.1300      0.21858150
       6826.6000      0.19203550
       6828.0700      0.17867560
       6829.5400      0.23344480
       6831.0100      0.26224720
       6832.4800      0.22067960
       6833.9500      0.16714590
       6835.4200      0.16129440
       6836.8900      0.19425990
       6838.3600      0.20542860
       6839.8300      0.21501580
       6841.3000      0.22815480
       6842.7700      0.20743040
       6844.2400      0.18881710
       6845.7100      0.19972160
       6847.1800      0.20551860
       6848.6500      0.17850280
       6850.1200      0.17692730
       6851.5900      0.21784050
       6853.0600      0.22801400
       6854.5300      0.20821100
       6856.0000      0.19694300
       6857.4700      0.18983380
       6858.9400      0.18291610
       6860.4100      0.19131820
       6861.8800      0.20876290
       6863.3500      0.22455100
       6864.8200      0.21102410
       6866.2900      0.17887400
       6867.7600      0.17041260
       6869.2300      0.16209790
       6870.7000      0.16098550
       6872.1700      0.17702060
       6873.6400      0.17223760
       6875.1100      0.19717050
       6876.5800      0.21447100
       6878.0500      0.18274890
       6879.5200      0.17813420
       6880.9900      0.17886400
       6882.4600      0.18103740
       6883.9300      0.17704060
       6885.4000      0.16488030
       6886.8700      0.18259260
       6888.3400      0.19099930
       6889.8100      0.19722280
       6891.2800      0.17699690
       6892.7500      0.16829730
       6894.2200      0.19221360
       6895.6900      0.17578610
       6897.1600      0.16242230
       6898.6300      0.18902600
       6900.1000      0.19822720
       6901.5700      0.18578950
       6903.0400      0.18721650
       6904.5100      0.19014060
       6905.9800      0.19966070
       6907.4500      0.17667800
       6908.9200      0.18374920
       6910.3900      0.21275410
       6911.8600      0.18913200
       6913.3300      0.15960610
       6914.8000      0.16160490
       6916.2700      0.18800890
       6917.7400      0.21540860
       6919.2100      0.21150430
       6920.6800      0.15597290
       6922.1500      0.15920320
       6923.6200      0.18844320
       6925.0900      0.18244970
       6926.5600      0.17748210
       6928.0300      0.16541420
       6929.5000      0.15325900
       6930.9700      0.15442080
       6932.4400      0.18801660
       6933.9100      0.19796220
       6935.3800      0.18536760
       6936.8500      0.18054550
       6938.3200      0.18620560
       6939.7900      0.19963100
       6941.2600      0.19034470
       6942.7299      0.17974330
       6944.2000      0.19842860
       6945.6700      0.19879050
       6947.1400      0.18133730
       6948.6100      0.16619280
       6950.0800      0.19910100
       6951.5500      0.21170740
       6953.0200      0.19225970
       6954.4900      0.16686530
       6955.9600      0.17538070
       6957.4300      0.21162190
       6958.9000      0.19602580
       6960.3700      0.18656970
       6961.8400      0.18946630
       6963.3100      0.19967840
       6964.7800      0.20456220
       6966.2500      0.21054010
       6967.7200      0.22420500
       6969.1900      0.19455190
       6970.6600      0.20058660
       6972.1300      0.22170710
       6973.6000      0.20146520
       6975.0700      0.19075850
       6976.5400      0.22257360
       6978.0100      0.24674820
       6979.4800      0.22584190
       6980.9500      0.22538440
       6982.4200      0.23282950
       6983.8900      0.22495940
       6985.3600      0.23306820
       6986.8300      0.24321950
       6988.3000      0.21178360
       6989.7700      0.20696490
       6991.2400      0.24549040
       6992.7100      0.23044160
       6994.1800      0.21769570
       6995.6500      0.23041140
       6997.1200      0.24556670
       6998.5900      0.26057420
       7000.0600      0.24543560
       7001.5300      0.24069140
       7003.0000      0.22616860
       7004.4700      0.20056490
       7005.9400      0.21819120
       7007.4100      0.22891880
       7008.8800      0.23070440
       7010.3500      0.24862240
       7011.8200      0.25349480
       7013.2900      0.24907630
       7014.7600      0.27059150
       7016.2300      0.26919640
       7017.7000      0.23246610
       7019.1700      0.22250050
       7020.6400      0.23923560
       7022.1100      0.26822640
       7023.5800      0.26658760
       7025.0500      0.25366060
       7026.5200      0.27622590
       7027.9900      0.28736080
       7029.4600      0.26564960
       7030.9300      0.24806460
       7032.4000      0.24716790
       7033.8700      0.24661970
       7035.3400      0.24619750
       7036.8100      0.26957670
       7038.2800      0.29906960
       7039.7500      0.27547360
       7041.2200      0.23926840
       7042.6900      0.24371110
       7044.1600      0.26399430
       7045.6300      0.25742130
       7047.1000      0.24612180
       7048.5700      0.23913910
       7050.0400      0.22875570
       7051.5100      0.24783280
       7052.9800      0.26606170
       7054.4500      0.24555490
       7055.9200      0.24553390
       7057.3900      0.24008400
       7058.8600      0.23458290
       7060.3300      0.24905890
       7061.8000      0.26640410
       7063.2700      0.27265620
       7064.7400      0.27274570
       7066.2100      0.26850710
       7067.6800      0.25000020
       7069.1500      0.24900960
       7070.6200      0.29408200
       7072.0900      0.31081530
       7073.5600      0.28255100
       7075.0300      0.25776630
       7076.5000      0.25380070
       7077.9700      0.24904710
       7079.4400      0.23306850
       7080.9100      0.23408220
       7082.3800      0.25786600
       7083.8500      0.25983460
       7085.3200      0.26225470
       7086.7900      0.29113210
       7088.2600      0.26899470
       7089.7300      0.23219430
       7091.2000      0.23515880
       7092.6700      0.23175040
       7094.1400      0.22225810
       7095.6100      0.24577060
       7097.0800      0.26250620
       7098.5500      0.25032220
       7100.0200      0.23813140
       7101.4900      0.25213550
       7102.9600      0.27685910
       7104.4300      0.28870370
       7105.9000      0.28645080
       7107.3700      0.27826290
       7108.8400      0.27384070
       7110.3100      0.27305150
       7111.7800      0.27900820
       7113.2500      0.28869240
       7114.7200      0.28081980
       7116.1900      0.26086170
       7117.6600      0.26356460
       7119.1300      0.27615340
       7120.6000      0.26916830
       7122.0700      0.26860790
       7123.5400      0.25624600
       7125.0100      0.24952390
       7126.4800      0.27243140
       7127.9500      0.27847460
       7129.4200      0.27834390
       7130.8900      0.27729830
       7132.3600      0.26846980
       7133.8300      0.26068880
       7135.3000      0.26267450
       7136.7700      0.25597860
       7138.2400      0.25579060
       7139.7100      0.26189910
       7141.1800      0.25513580
       7142.6500      0.26409550
       7144.1200      0.27580030
       7145.5900      0.25143240
       7147.0600      0.22932590
       7148.5300      0.26834680
       7150.0000      0.30646650
       7151.4700      0.29655470
       7152.9400      0.26745950
       7154.4100      0.27071530
       7155.8800      0.28556630
       7157.3500      0.27679760
       7158.8200      0.27359620
       7160.2900      0.28433700
       7161.7600      0.27772600
       7163.2300      0.26711550
       7164.7000      0.26489520
       7166.1700      0.27673740
       7167.6400      0.29822370
       7169.1100      0.29291570
       7170.5800      0.27607170
       7172.0500      0.29621440
       7173.5200      0.31164670
       7174.9900      0.28524640
       7176.4600      0.31272690
       7177.9300      0.33043130
       7179.4000      0.28454240
       7180.8700      0.25900050
       7182.3400      0.28186110
       7183.8100      0.32307870
       7185.2800      0.33576660
       7186.7500      0.31470410
       7188.2200      0.27460690
       7189.6900      0.28341660
       7191.1600      0.32899390
       7192.6300      0.32143920
       7194.1000      0.30259900
       7195.5700      0.32767970
       7197.0400      0.32605990
       7198.5100      0.31130250
       7199.9800      0.30829660
       7201.4500      0.30921160
       7202.9200      0.29871010
       7204.3900      0.29553890
       7205.8600      0.32942130
       7207.3300      0.33548180
       7208.8000      0.31438350
       7210.2700      0.33446850
       7211.7400      0.33576420
       7213.2100      0.32741160
       7214.6800      0.34114700
       7216.1500      0.34708420
       7217.6200      0.32910860
       7219.0900      0.32056160
       7220.5600      0.33605630
       7222.0300      0.36997940
       7223.5000      0.38049940
       7224.9700      0.35772650
       7226.4400      0.35505490
       7227.9100      0.38149660
       7229.3800      0.39949680
       7230.8500      0.42847410
       7232.3200      0.44288920
       7233.7900      0.40449670
       7235.2600      0.39171020
       7236.7300      0.40637280
       7238.2000      0.38845730
       7239.6700      0.36372960
       7241.1400      0.37828520
       7242.6100      0.39445450
       7244.0800      0.40584480
       7245.5500      0.41002110
       7247.0200      0.40439850
       7248.4900      0.37932210
       7249.9600      0.37190030
       7251.4300      0.41580320
       7252.9000      0.43087940
       7254.3700      0.39416190
       7255.8399      0.40476950
       7257.3100      0.42534240
       7258.7800      0.40285970
       7260.2500      0.42723970
       7261.7200      0.42257660
       7263.1900      0.40237730
       7264.6600      0.42692590
       7266.1300      0.42447390
       7267.6000      0.42256330
       7269.0700      0.43399850
       7270.5400      0.43509770
       7272.0100      0.43961460
       7273.4800      0.46486100
       7274.9500      0.48338590
       7276.4200      0.49030860
       7277.8900      0.45483630
       7279.3600      0.44538050
       7280.8300      0.44855330
       7282.3000      0.45524200
       7283.7700      0.45735260
       7285.2400      0.45292740
       7286.7100      0.47986560
       7288.1800      0.49740740
       7289.6500      0.49041050
       7291.1200      0.53217030
       7292.5900      0.55959030
       7294.0600      0.56110720
       7295.5300      0.53970410
       7297.0000      0.53885190
       7298.4700      0.55171420
       7299.9400      0.56526580
       7301.4100      0.58378840
       7302.8800      0.55198030
       7304.3500      0.55004640
       7305.8200      0.53946210
       7307.2900      0.52058110
       7308.7600      0.53341410
       7310.2300      0.56655340
       7311.7000      0.58304420
       7313.1700      0.56487250
       7314.6400      0.57060860
       7316.1100      0.61341730
       7317.5800      0.61488740
       7319.0500      0.57707070
       7320.5200      0.56856100
       7321.9900      0.56399450
       7323.4600      0.57638870
       7324.9300      0.59479490
       7326.4000      0.54627190
       7327.8700      0.55500600
       7329.3400      0.60146190
       7330.8100      0.56369590
       7332.2800      0.57596060
       7333.7500      0.60608040
       7335.2200      0.60931620
       7336.6900      0.61654330
       7338.1600      0.56356750
       7339.6300      0.49148820
       7341.1000      0.53088890
       7342.5700      0.54425120
       7344.0400      0.52719700
       7345.5100      0.56204650
       7346.9800      0.60986610
       7348.4500      0.57677920
       7349.9200      0.57534300
       7351.3900      0.56840570
       7352.8600      0.56396420
       7354.3300      0.56289880
       7355.8000      0.59250480
       7357.2700      0.58081270
       7358.7400      0.51622380
       7360.2100      0.52021440
       7361.6800      0.52133140
       7363.1500      0.50438720
       7364.6200      0.53708440
       7366.0900      0.51625190
       7367.5600      0.45420600
       7369.0300      0.45980230
       7370.5000      0.47825720
       7371.9700      0.48048910
       7373.4400      0.47344340
       7374.9100      0.48331610
       7376.3800      0.44116600
       7377.8500      0.43681870
       7379.3200      0.47214660
       7380.7900      0.46626330
       7382.2600      0.45483210
       7383.7300      0.46162050
       7385.2000      0.44368560
       7386.6700      0.41500100
       7388.1400      0.43935550
       7389.6100      0.42890510
       7391.0800      0.42253180
       7392.5500      0.40847680
       7394.0200      0.42861560
       7395.4900      0.40556390
       7396.9600      0.41643000
       7398.4300      0.43701170
       7399.9000      0.41422850
       7401.3700      0.40791100
       7402.8400      0.40468210
       7404.3100      0.40474020
       7405.7800      0.38015070
       7407.2500      0.37708770
       7408.7200      0.38611080
       7410.1900      0.38505190
       7411.6600      0.37907770
       7413.1300      0.35629000
       7414.6000      0.36926770
       7416.0700      0.40410560
       7417.5400      0.39405400
