Units are: observed wavelength (Ang), observed flux (10^-15 erg/s/cm^2/Ang)
       3700.0000       5.1962080
       3701.1999       5.2079360
       3702.3998       5.2684200
       3703.5997       5.1478600
       3704.7996       4.9100440
       3705.9995       4.9735780
       3707.1995       4.9804740
       3708.3994       5.0485520
       3709.5993       5.0747500
       3710.7992       5.3550540
       3711.9991       5.3574860
       3713.1990       5.2239100
       3714.3989       5.1662060
       3715.5989       5.2968300
       3716.7988       5.2727900
       3717.9987       5.3118540
       3719.1986       4.7956880
       3720.3985       4.7808580
       3721.5984       4.7821740
       3722.7984       4.8600460
       3723.9983       5.0319720
       3725.1982       5.2098960
       3726.3981       5.0831500
       3727.5980       4.8014020
       3728.7979       4.8351900
       3729.9978       4.9998000
       3731.1977       4.9287140
       3732.3976       4.7214880
       3733.5975       4.6304760
       3734.7974       4.7493000
       3735.9973       4.5111180
       3737.1972       4.5199580
       3738.3972       4.7801320
       3739.5971       4.5988400
       3740.7970       4.6622800
       3741.9969       4.4894640
       3743.1968       4.3794260
       3744.3968       4.4081280
       3745.5967       4.3168340
       3746.7966       4.2189560
       3747.9965       4.0512560
       3749.1964       3.8736540
       3750.3963       3.8491100
       3751.5962       3.8044120
       3752.7961       3.9079340
       3753.9961       3.8281540
       3755.1960       3.7483180
       3756.3959       3.5136860
       3757.5958       3.3710580
       3758.7957       3.4302860
       3759.9956       3.3254320
       3761.1955       3.1043740
       3762.3954       2.9523880
       3763.5953       2.9733840
       3764.7952       2.9410280
       3765.9951       2.7689780
       3767.1950       2.5691720
       3768.3949       2.5652580
       3769.5949       2.5702700
       3770.7948       2.5423860
       3771.9947       2.4432020
       3773.1947       2.4842540
       3774.3946       2.4388960
       3775.5945       2.3251920
       3776.7944       2.3467280
       3777.9943       2.3333020
       3779.1942       2.2505720
       3780.3941       2.2224200
       3781.5940       2.2867140
       3782.7939       2.3298080
       3783.9938       2.2519920
       3785.1938       2.0876800
       3786.3937       2.0078480
       3787.5936       2.0860420
       3788.7935       1.9866796
       3789.9934       1.8883724
       3791.1933       1.9346622
       3792.3932       1.8793322
       3793.5931       1.8577614
       3794.7930       1.8573336
       3795.9929       1.8011026
       3797.1928       1.6703314
       3798.3927       1.6754886
       3799.5926       1.7860998
       3800.7926       1.8770308
       3801.9926       1.8044502
       3803.1925       1.8847988
       3804.3924       1.8425384
       3805.5923       1.7706950
       3806.7922       1.7453902
       3807.9921       1.7837316
       3809.1920       1.8546022
       3810.3919       1.8279306
       3811.5918       1.8031134
       3812.7917       1.8501466
       3813.9916       1.8310408
       3815.1915       1.8552416
       3816.3915       1.8090800
       3817.5914       1.7927276
       3818.7913       1.7534684
       3819.9912       1.8505764
       3821.1911       1.8670594
       3822.3910       1.8497128
       3823.5909       1.9285878
       3824.7908       1.9865758
       3825.9907       2.0404260
       3827.1906       1.9232398
       3828.3905       2.0389460
       3829.5904       2.0608280
       3830.7904       2.1950880
       3831.9904       2.1892800
       3833.1903       2.1808780
       3834.3902       2.3314760
       3835.5901       2.3449600
       3836.7900       2.3083700
       3837.9899       2.4075020
       3839.1898       2.4081220
       3840.3897       2.4882720
       3841.5896       2.5779480
       3842.7895       2.5334920
       3843.9894       2.5949700
       3845.1893       2.6799700
       3846.3893       2.8034200
       3847.5892       2.6558500
       3848.7891       2.8029000
       3849.9890       2.8338840
       3851.1889       2.8929920
       3852.3888       3.0009540
       3853.5887       2.9037460
       3854.7886       3.1109180
       3855.9885       3.0182940
       3857.1884       3.1078160
       3858.3883       3.1066560
       3859.5883       3.1323600
       3860.7882       3.2248040
       3861.9882       3.2703100
       3863.1881       3.2995200
       3864.3880       3.4267000
       3865.5879       3.4744400
       3866.7878       3.4298940
       3867.9877       3.5278800
       3869.1876       3.5285720
       3870.3875       3.5541360
       3871.5874       3.6195440
       3872.7873       3.6304400
       3873.9872       3.6419580
       3875.1871       3.6784640
       3876.3870       3.8925440
       3877.5870       3.7101100
       3878.7869       3.8218000
       3879.9868       3.8014880
       3881.1867       3.8281300
       3882.3866       3.9700220
       3883.5865       4.0265140
       3884.7864       4.0223280
       3885.9863       4.0746480
       3887.1862       4.1461720
       3888.3862       4.2977820
       3889.5861       4.1746740
       3890.7860       4.2764740
       3891.9859       4.4286740
       3893.1859       4.4032980
       3894.3858       4.4577580
       3895.5857       4.5053380
       3896.7856       4.5090620
       3897.9855       4.4250540
       3899.1854       4.5803500
       3900.3853       4.4755160
       3901.5852       4.6107020
       3902.7851       4.7242460
       3903.9850       4.6116680
       3905.1849       4.7574440
       3906.3848       4.7374720
       3907.5847       4.7337460
       3908.7847       4.9056480
       3909.9846       4.9381140
       3911.1845       4.9587960
       3912.3844       5.0236740
       3913.5843       4.9662640
       3914.7842       5.0936620
       3915.9841       5.0751480
       3917.1841       5.1458840
       3918.3840       5.1593600
       3919.5839       5.0739760
       3920.7838       5.0728940
       3921.9837       5.1171060
       3923.1836       5.2787400
       3924.3836       5.2749340
       3925.5835       5.1648040
       3926.7834       5.2647680
       3927.9833       5.2128360
       3929.1832       5.2342020
       3930.3831       5.2300940
       3931.5830       5.0869820
       3932.7829       5.0008380
       3933.9828       5.0046280
       3935.1827       5.1121580
       3936.3826       5.3473360
       3937.5825       5.4768180
       3938.7824       5.4549820
       3939.9824       5.6294060
       3941.1823       5.6762700
       3942.3822       5.7487460
       3943.5821       5.7285340
       3944.7820       5.7334960
       3945.9820       5.7845000
       3947.1819       5.8179760
       3948.3818       5.7137360
       3949.5817       5.7035540
       3950.7816       5.5735020
       3951.9815       5.7197440
       3953.1814       5.7440700
       3954.3813       5.8449420
       3955.5813       6.0349320
       3956.7812       6.1040320
       3957.9811       6.1110140
       3959.1810       5.9277400
       3960.3809       5.9676940
       3961.5808       6.0393540
       3962.7807       6.0939940
       3963.9806       5.9885340
       3965.1805       6.0145260
       3966.3804       6.0043600
       3967.5803       5.6960100
       3968.7802       5.8913300
       3969.9801       6.1322800
       3971.1801       6.2075280
       3972.3800       6.1141900
       3973.5799       6.1685540
       3974.7799       6.0138860
       3975.9798       6.0062380
       3977.1797       5.9561440
       3978.3796       5.9488920
       3979.5795       6.0087320
       3980.7794       6.0267820
       3981.9793       6.0130640
       3983.1792       5.9221940
       3984.3791       5.9626180
       3985.5790       5.8589540
       3986.7790       5.7453100
       3987.9789       5.7890200
       3989.1788       5.8805500
       3990.3787       6.0486640
       3991.5786       5.9832680
       3992.7785       5.9578700
       3993.9784       5.7880080
       3995.1783       5.7178200
       3996.3782       5.8418780
       3997.5781       5.8343340
       3998.7780       5.7144780
       3999.9779       5.7034560
       4001.1779       5.6559040
       4002.3778       5.6778020
       4003.5778       5.6221580
       4004.7777       5.5551080
       4005.9776       5.5299800
       4007.1775       5.5192380
       4008.3774       5.4850040
       4009.5773       5.3946220
       4010.7772       5.2943400
       4011.9771       5.2629280
       4013.1770       5.2888280
       4014.3769       5.3332420
       4015.5768       5.2819960
       4016.7768       5.3543160
       4017.9767       5.2262440
       4019.1766       5.1172440
       4020.3765       5.1283460
       4021.5764       4.9667800
       4022.7763       4.9698240
       4023.9762       4.9707120
       4025.1761       4.8878900
       4026.3760       4.8709240
       4027.5759       4.9687920
       4028.7758       4.9829860
       4029.9757       4.8560560
       4031.1756       4.8576360
       4032.3757       4.7571760
       4033.5756       4.7662360
       4034.7755       4.7244940
       4035.9754       4.7649740
       4037.1753       4.8269400
       4038.3752       4.8225760
       4039.5751       4.7896720
       4040.7750       4.7765180
       4041.9749       4.6990440
       4043.1748       4.6456220
       4044.3747       4.7248920
       4045.5746       4.7352380
       4046.7745       4.6628400
       4047.9745       4.6450020
       4049.1744       4.6217620
       4050.3743       4.6904240
       4051.5742       4.6017340
       4052.7741       4.5365800
       4053.9740       4.7230120
       4055.1739       4.6086280
       4056.3738       4.5660060
       4057.5737       4.6890620
       4058.7736       4.6053320
       4059.9735       4.6022060
       4061.1735       4.5475620
       4062.3734       4.5782040
       4063.5734       4.6045000
       4064.7733       4.5401920
       4065.9732       4.6530800
       4067.1731       4.6216460
       4068.3730       4.5397480
       4069.5729       4.5619640
       4070.7728       4.5212860
       4071.9727       4.3720520
       4073.1726       4.4166200
       4074.3725       4.4929480
       4075.5724       4.5886200
       4076.7723       4.5048040
       4077.9722       4.3354800
       4079.1722       4.3077760
       4080.3721       4.2455960
       4081.5720       4.3533400
       4082.7719       4.2710380
       4083.9718       4.2714860
       4085.1717       4.2491360
       4086.3716       4.2589380
       4087.5715       4.3634720
       4088.7714       4.2391600
       4089.9714       4.2596760
       4091.1713       4.1361660
       4092.3712       4.1773540
       4093.5711       4.0893760
       4094.7711       4.0721800
       4095.9710       4.1093720
       4097.1709       4.0775240
       4098.3708       4.0401020
       4099.5707       3.9716000
       4100.7706       3.9691640
       4101.9705       4.0059880
       4103.1704       4.0019760
       4104.3703       3.9697960
       4105.5702       3.9665580
       4106.7701       3.9680540
       4107.9700       3.9349620
       4109.1699       3.8959120
       4110.3699       3.9768140
       4111.5698       4.0028660
       4112.7697       3.8552820
       4113.9696       3.9103320
       4115.1695       3.9272540
       4116.3694       3.8658820
       4117.5693       3.9555380
       4118.7693       3.9392700
       4119.9692       3.7972440
       4121.1691       3.9576440
       4122.3690       3.8686800
       4123.5689       3.7336660
       4124.7688       3.7429560
       4125.9688       3.7468180
       4127.1687       3.6804820
       4128.3686       3.6924880
       4129.5685       3.6597260
       4130.7684       3.5746040
       4131.9683       3.6936380
       4133.1682       3.5976200
       4134.3681       3.5684260
       4135.5680       3.6030600
       4136.7679       3.5098800
       4137.9678       3.4856440
       4139.1677       3.4545120
       4140.3677       3.5134160
       4141.5676       3.5237440
       4142.7675       3.5091680
       4143.9674       3.4620380
       4145.1673       3.4165020
       4146.3673       3.3902700
       4147.5672       3.4732380
       4148.7671       3.4144460
       4149.9670       3.4667520
       4151.1669       3.3766880
       4152.3668       3.3124400
       4153.5667       3.4000880
       4154.7666       3.3819520
       4155.9666       3.4123020
       4157.1665       3.3922300
       4158.3664       3.3766300
       4159.5663       3.3673640
       4160.7662       3.3938180
       4161.9661       3.3826740
       4163.1660       3.4190080
       4164.3659       3.2806800
       4165.5658       3.4073960
       4166.7657       3.4130240
       4167.9656       3.3545580
       4169.1655       3.4522500
       4170.3654       3.5169280
       4171.5654       3.5367560
       4172.7653       3.4756880
       4173.9652       3.4416980
       4175.1652       3.4990100
       4176.3651       3.5430600
       4177.5650       3.5702740
       4178.7649       3.5404120
       4179.9648       3.6126040
       4181.1647       3.6599860
       4182.3646       3.6351540
       4183.5645       3.6897680
       4184.7644       3.6754020
       4185.9643       3.7046980
       4187.1643       3.6692200
       4188.3642       3.6794320
       4189.5641       3.6427140
       4190.7640       3.6597980
       4191.9639       3.6599600
       4193.1638       3.7338120
       4194.3637       3.6161060
       4195.5636       3.7364760
       4196.7635       3.6469400
       4197.9634       3.7698320
       4199.1633       3.6035000
       4200.3632       3.6523440
       4201.5631       3.7046200
       4202.7631       3.7341360
       4203.9631       3.7534700
       4205.1630       3.7365420
       4206.3629       3.7793900
       4207.5628       3.7778820
       4208.7627       3.7835980
       4209.9626       3.7710060
       4211.1625       3.6775780
       4212.3624       3.7706980
       4213.5623       3.6923460
       4214.7622       3.6659560
       4215.9621       3.6934600
       4217.1620       3.7535940
       4218.3620       3.7524580
       4219.5619       3.7705240
       4220.7618       3.7734760
       4221.9617       3.7259720
       4223.1616       3.6603000
       4224.3615       3.6620140
       4225.5614       3.6607240
       4226.7613       3.6422440
       4227.9612       3.6579980
       4229.1611       3.6104880
       4230.3610       3.6766240
       4231.5609       3.7095660
       4232.7609       3.6373080
       4233.9609       3.6658540
       4235.1608       3.5651060
       4236.3607       3.5987340
       4237.5606       3.5699020
       4238.7605       3.6691860
       4239.9604       3.6528540
       4241.1603       3.6399380
       4242.3602       3.6240380
       4243.5601       3.6107880
       4244.7600       3.6704020
       4245.9599       3.5858760
       4247.1598       3.5803580
       4248.3597       3.6239360
       4249.5597       3.5677480
       4250.7596       3.5210640
       4251.9595       3.5515520
       4253.1594       3.6533100
       4254.3593       3.5943800
       4255.5592       3.6139200
       4256.7591       3.6426920
       4257.9590       3.6393720
       4259.1589       3.5303320
       4260.3588       3.5721920
       4261.5588       3.6547840
       4262.7587       3.6095640
       4263.9586       3.5727540
       4265.1586       3.6193320
       4266.3585       3.6487980
       4267.5584       3.6344940
       4268.7583       3.5830280
       4269.9582       3.6178320
       4271.1581       3.5587320
       4272.3580       3.5672480
       4273.5579       3.5640160
       4274.7578       3.5807420
       4275.9577       3.6610340
       4277.1576       3.6438160
       4278.3575       3.7033580
       4279.5574       3.6299560
       4280.7574       3.7090220
       4281.9573       3.7370620
       4283.1572       3.6743800
       4284.3571       3.6773500
       4285.5570       3.6860180
       4286.7569       3.7552540
       4287.9568       3.7419160
       4289.1567       3.6321740
       4290.3567       3.7260060
       4291.5566       3.8120800
       4292.7565       3.7990760
       4293.9564       3.7963120
       4295.1564       3.7681960
       4296.3563       3.7489320
       4297.5562       3.7057400
       4298.7561       3.7516820
       4299.9560       3.7050740
       4301.1559       3.7886720
       4302.3558       3.7608420
       4303.5557       3.7888740
       4304.7556       3.7878900
       4305.9555       3.8163720
       4307.1554       3.8142980
       4308.3553       3.8535120
       4309.5552       3.8771940
       4310.7552       3.8214460
       4311.9551       3.7629660
       4313.1550       3.8095860
       4314.3549       3.8763420
       4315.5548       3.8616440
       4316.7547       3.9125680
       4317.9546       3.8803360
       4319.1546       3.8372520
       4320.3545       3.9030820
       4321.5544       3.8628860
       4322.7543       3.8117040
       4323.9542       3.7497820
       4325.1541       3.7190600
       4326.3541       3.7190300
       4327.5540       3.7141060
       4328.7539       3.7508600
       4329.9538       3.7583700
       4331.1537       3.8553780
       4332.3536       3.7269380
       4333.5535       3.7453200
       4334.7534       3.6863160
       4335.9533       3.7089040
       4337.1532       3.6058480
       4338.3531       3.5971220
       4339.5530       3.4467920
       4340.7529       3.4753960
       4341.9529       3.5233100
       4343.1528       3.4824000
       4344.3527       3.4767340
       4345.5526       3.4773420
       4346.7525       3.4659080
       4347.9525       3.3481420
       4349.1524       3.3901000
       4350.3523       3.3820180
       4351.5522       3.2815380
       4352.7521       3.2328420
       4353.9520       3.2384060
       4355.1519       3.2637600
       4356.3518       3.3080540
       4357.5518       3.2741880
       4358.7517       3.2699580
       4359.9516       3.2101460
       4361.1515       3.2072260
       4362.3514       3.1799000
       4363.5513       3.1407520
       4364.7512       3.0870280
       4365.9511       3.0665840
       4367.1510       3.0476420
       4368.3509       3.0068680
       4369.5508       3.0361300
       4370.7507       3.0328860
       4371.9506       3.0229960
       4373.1506       2.9875200
       4374.3505       2.9939000
       4375.5504       2.9673240
       4376.7504       2.9171860
       4377.9503       2.9231700
       4379.1502       2.9219560
       4380.3501       2.8897120
       4381.5500       2.8490480
       4382.7499       2.8583720
       4383.9498       2.7713540
       4385.1497       2.8456900
       4386.3496       2.7554980
       4387.5495       2.7780560
       4388.7495       2.8071400
       4389.9494       2.7918760
       4391.1493       2.8228660
       4392.3492       2.7267360
       4393.5491       2.7259660
       4394.7490       2.7712860
       4395.9489       2.7890960
       4397.1488       2.7580780
       4398.3487       2.7488240
       4399.5486       2.7408180
       4400.7485       2.7992440
       4401.9484       2.8303700
       4403.1483       2.8485160
       4404.3483       2.7666360
       4405.5483       2.6938880
       4406.7482       2.7222420
       4407.9481       2.7739300
       4409.1480       2.7480520
       4410.3479       2.7727840
       4411.5478       2.7724320
       4412.7477       2.7570400
       4413.9476       2.7672440
       4415.1475       2.7428920
       4416.3474       2.7432840
       4417.5473       2.8343020
       4418.7472       2.8286840
       4419.9472       2.8440840
       4421.1471       2.8684860
       4422.3470       2.8783940
       4423.5469       2.8976700
       4424.7468       2.9027940
       4425.9467       2.9218160
       4427.1466       2.9487980
       4428.3465       2.9441440
       4429.5464       3.0033160
       4430.7463       3.0045500
       4431.9462       3.0103300
       4433.1461       3.0651280
       4434.3461       3.0645420
       4435.5461       3.1156420
       4436.7460       3.1817180
       4437.9459       3.0994840
       4439.1458       3.1390640
       4440.3457       3.2026240
       4441.5456       3.2269080
       4442.7455       3.2666040
       4443.9454       3.3149160
       4445.1453       3.2455920
       4446.3452       3.3176620
       4447.5451       3.3355500
       4448.7450       3.3833320
       4449.9450       3.3806180
       4451.1449       3.3543120
       4452.3448       3.4550160
       4453.5447       3.4381480
       4454.7446       3.4819860
       4455.9445       3.5150520
       4457.1444       3.5117700
       4458.3443       3.5534480
       4459.5442       3.4255240
       4460.7441       3.5398640
       4461.9440       3.6181060
       4463.1440       3.7381980
       4464.3439       3.6568600
       4465.5439       3.6405980
       4466.7438       3.7112260
       4467.9437       3.7246360
       4469.1436       3.7013020
       4470.3435       3.6913660
       4471.5434       3.7643280
       4472.7433       3.8444920
       4473.9432       3.8420660
       4475.1431       3.8817460
       4476.3430       3.8462800
       4477.5429       3.9178080
       4478.7428       3.9075880
       4479.9427       3.8818280
       4481.1427       3.9657800
       4482.3426       3.9934700
       4483.5425       3.9651800
       4484.7424       4.0327040
       4485.9423       4.0409640
       4487.1422       4.0383040
       4488.3421       4.0485620
       4489.5420       4.0983020
       4490.7419       4.0959800
       4491.9419       4.1608960
       4493.1418       4.1669720
       4494.3417       4.2000200
       4495.5416       4.2554140
       4496.7416       4.2313960
       4497.9415       4.2277280
       4499.1414       4.3318740
       4500.3413       4.2980340
       4501.5412       4.3584680
       4502.7411       4.4318580
       4503.9410       4.4246580
       4505.1409       4.4339320
       4506.3408       4.5175340
       4507.5407       4.4965800
       4508.7406       4.5211980
       4509.9405       4.5244200
       4511.1404       4.4950240
       4512.3404       4.5079080
       4513.5403       4.6001160
       4514.7402       4.5939300
       4515.9401       4.6913940
       4517.1400       4.7307260
       4518.3399       4.8492240
       4519.5398       4.8191000
       4520.7398       4.8548160
       4521.9397       4.9682300
       4523.1396       4.8497320
       4524.3395       4.9417280
       4525.5394       5.0878580
       4526.7393       5.0433980
       4527.9393       5.1391660
       4529.1392       5.1887200
       4530.3391       5.1211940
       4531.5390       5.2303320
       4532.7389       5.3077700
       4533.9388       5.3289720
       4535.1387       5.3789420
       4536.3386       5.5294820
       4537.5385       5.5201580
       4538.7384       5.5701120
       4539.9383       5.6848200
       4541.1382       5.6744140
       4542.3381       5.7626420
       4543.5381       5.7255120
       4544.7380       5.8706980
       4545.9379       5.9526180
       4547.1378       5.9807380
       4548.3378       6.0352900
       4549.5377       6.0818280
       4550.7376       6.0871700
       4551.9375       6.1926240
       4553.1374       6.1704000
       4554.3373       6.1856680
       4555.5372       6.2054100
       4556.7371       6.2750160
       4557.9370       6.3572580
       4559.1370       6.4042740
       4560.3369       6.4524820
       4561.5368       6.4287600
       4562.7367       6.4420420
       4563.9366       6.4428200
       4565.1365       6.4720900
       4566.3364       6.4271980
       4567.5363       6.4225660
       4568.7362       6.4583420
       4569.9361       6.5237320
       4571.1360       6.4827300
       4572.3359       6.4008240
       4573.5358       6.3715380
       4574.7358       6.3982280
       4575.9357       6.3282120
       4577.1357       6.3065840
       4578.3356       6.3158800
       4579.5355       6.2921640
       4580.7354       6.2053800
       4581.9353       6.1871560
       4583.1352       6.1877540
       4584.3351       6.2256780
       4585.5350       6.2729020
       4586.7349       6.2505400
       4587.9348       6.2423860
       4589.1348       6.1278700
       4590.3347       6.1884720
       4591.5346       6.2494780
       4592.7345       6.1652580
       4593.9344       6.0909580
       4595.1343       6.0978700
       4596.3342       6.1209480
       4597.5341       6.1417140
       4598.7340       6.0874480
       4599.9339       5.9779460
       4601.1338       6.0362900
       4602.3337       6.1195520
       4603.5336       5.9975380
       4604.7336       5.9285800
       4605.9336       5.9911520
       4607.1335       6.0393520
       4608.3334       5.9921820
       4609.5333       6.0300440
       4610.7332       5.9814600
       4611.9331       5.9415920
       4613.1330       5.9705860
       4614.3329       6.0017720
       4615.5328       5.8781300
       4616.7327       5.8095280
       4617.9326       5.9224960
       4619.1325       5.9108060
       4620.3325       5.8639660
       4621.5324       5.8497180
       4622.7323       5.8235080
       4623.9322       5.7691000
       4625.1321       5.7698640
       4626.3320       5.7720120
       4627.5319       5.7446140
       4628.7318       5.7327040
       4629.9317       5.6932540
       4631.1316       5.6601940
       4632.3315       5.6360980
       4633.5314       5.7349280
       4634.7314       5.6584380
       4635.9314       5.6724260
       4637.1313       5.5444960
       4638.3312       5.5688080
       4639.5311       5.5589180
       4640.7310       5.3956980
       4641.9309       5.4398080
       4643.1308       5.3904720
       4644.3307       5.2930400
       4645.5306       5.4012940
       4646.7305       5.2683420
       4647.9304       5.2467460
       4649.1303       5.2402900
       4650.3302       5.2080840
       4651.5302       5.1737500
       4652.7301       5.1064340
       4653.9300       5.0268080
       4655.1299       4.9988780
       4656.3298       4.9785500
       4657.5297       4.9171060
       4658.7296       4.9167140
       4659.9295       4.8301840
       4661.1294       4.7945020
       4662.3293       4.7703080
       4663.5293       4.7231080
       4664.7292       4.6403940
       4665.9291       4.5683380
       4667.1291       4.5502860
       4668.3290       4.4601340
       4669.5289       4.4520900
       4670.7288       4.4530520
       4671.9287       4.4120660
       4673.1286       4.4067540
       4674.3285       4.3351860
       4675.5284       4.2535100
       4676.7283       4.3023320
       4677.9282       4.3502500
       4679.1281       4.3264480
       4680.3280       4.2760400
       4681.5279       4.2873100
       4682.7279       4.2705040
       4683.9278       4.2009780
       4685.1277       4.2078560
       4686.3276       4.1835420
       4687.5275       4.2099720
       4688.7274       4.1858920
       4689.9273       4.1453260
       4691.1272       4.0567880
       4692.3272       4.0627220
       4693.5271       4.1101660
       4694.7270       4.1102060
       4695.9269       4.0765300
       4697.1268       4.0538400
       4698.3268       4.0806540
       4699.5267       4.1403280
       4700.7266       4.1520940
       4701.9265       4.1354960
       4703.1264       4.0893520
       4704.3263       4.0690420
       4705.5262       4.1455960
       4706.7261       4.1494160
       4707.9260       4.1527000
       4709.1259       4.1481840
       4710.3258       4.1104520
       4711.5257       4.1896760
       4712.7256       4.1946720
       4713.9256       4.2917480
       4715.1255       4.4472960
       4716.3254       4.4336940
       4717.5253       4.2360720
       4718.7252       4.1913080
       4719.9251       4.2094060
       4721.1251       4.2425020
       4722.3250       4.2097180
       4723.5249       4.1896440
       4724.7248       4.2875000
       4725.9247       4.2382880
       4727.1246       4.3196080
       4728.3245       4.2762720
       4729.5245       4.1928440
       4730.7244       4.1923140
       4731.9243       4.1210420
       4733.1242       4.1851020
       4734.3241       4.1464120
       4735.5240       4.0917580
       4736.7239       4.0898440
       4737.9238       3.9152540
       4739.1237       3.9910200
       4740.3236       3.8914960
       4741.5235       3.8513220
       4742.7234       3.8210940
       4743.9234       3.8206720
       4745.1233       3.7223740
       4746.3232       3.6987700
       4747.5231       3.6962140
       4748.7230       3.6921900
       4749.9230       3.6448080
       4751.1229       3.5545160
       4752.3228       3.4784240
       4753.5227       3.4862400
       4754.7226       3.4516480
       4755.9225       3.4537060
       4757.1224       3.4392360
       4758.3223       3.3657700
       4759.5223       3.3433060
       4760.7222       3.4434560
       4761.9221       3.3361720
       4763.1220       3.3304580
       4764.3219       3.3203400
       4765.5218       3.2690220
       4766.7217       3.2552500
       4767.9216       3.2248060
       4769.1215       3.2765780
       4770.3214       3.2710700
       4771.5213       3.3524200
       4772.7212       3.3314140
       4773.9211       3.2451300
       4775.1211       3.3142240
       4776.3210       3.2750320
       4777.5209       3.2725820
       4778.7209       3.3046700
       4779.9208       3.3041620
       4781.1207       3.3184580
       4782.3206       3.3911720
       4783.5205       3.3717180
       4784.7204       3.3763920
       4785.9203       3.4759960
       4787.1202       3.4267940
       4788.3201       3.5166660
       4789.5200       3.5089180
       4790.7200       3.5276020
       4791.9199       3.5537080
       4793.1198       3.5575380
       4794.3197       3.6033920
       4795.5196       3.6757580
       4796.7195       3.6877080
       4797.9194       3.6424240
       4799.1193       3.6906400
       4800.3192       3.6715120
       4801.5191       3.7524000
       4802.7190       3.7631460
       4803.9189       3.8027420
       4805.1188       3.7609560
       4806.3188       3.8486960
       4807.5188       3.8106060
       4808.7187       3.8541960
       4809.9186       3.8458040
       4811.1185       3.8406560
       4812.3184       3.8443280
       4813.5183       3.8224860
       4814.7182       3.8752220
       4815.9181       3.8705480
       4817.1180       3.9395880
       4818.3179       3.8524020
       4819.5178       3.8403840
       4820.7177       3.7954480
       4821.9177       3.8023560
       4823.1176       3.7574420
       4824.3175       3.6453000
       4825.5174       3.7028500
       4826.7173       3.6737360
       4827.9172       3.6375100
       4829.1171       3.5725620
       4830.3170       3.4669240
       4831.5169       3.4430220
       4832.7168       3.4287340
       4833.9167       3.4086980
       4835.1166       3.3744680
       4836.3166       3.4277120
       4837.5166       3.3234660
       4838.7165       3.2863400
       4839.9164       3.2533780
       4841.1163       3.2483700
       4842.3162       3.1938160
       4843.5161       3.1374800
       4844.7160       3.1317220
       4845.9159       3.1658040
       4847.1158       3.1106420
       4848.3157       3.0623180
       4849.5156       3.0591340
       4850.7155       3.0777500
       4851.9154       3.0342640
       4853.1154       3.0291100
       4854.3153       3.0296900
       4855.5152       2.9990880
       4856.7151       3.0036740
       4857.9150       3.0049780
       4859.1149       3.0050380
       4860.3148       3.0768340
       4861.5147       3.0408280
       4862.7146       3.0394220
       4863.9145       3.0898740
       4865.1145       3.1004640
       4866.3144       3.0905140
       4867.5143       3.1193900
       4868.7143       3.1435140
       4869.9142       3.1922960
       4871.1141       3.2324620
       4872.3140       3.2247020
       4873.5139       3.2550360
       4874.7138       3.2949180
       4875.9137       3.3495960
       4877.1136       3.3723480
       4878.3135       3.3681540
       4879.5134       3.4465300
       4880.7133       3.4732200
       4881.9132       3.4698780
       4883.1131       3.5180000
       4884.3131       3.5230160
       4885.5130       3.5454220
       4886.7129       3.5443440
       4887.9128       3.5368160
       4889.1127       3.5774340
       4890.3126       3.5605520
       4891.5125       3.5513900
       4892.7124       3.6104360
       4893.9124       3.6405380
       4895.1123       3.6328180
       4896.3122       3.6679340
       4897.5121       3.6916540
       4898.7121       3.7188700
       4899.9120       3.7437820
       4901.1119       3.7260880
       4902.3118       3.7397280
       4903.5117       3.7702160
       4904.7116       3.7938300
       4905.9115       3.8193960
       4907.1114       3.8838820
       4908.3113       3.8904560
       4909.5112       3.9075560
       4910.7111       3.9263760
       4911.9110       3.9563220
       4913.1109       3.9421840
       4914.3109       3.9269600
       4915.5108       3.9910180
       4916.7107       4.0418420
       4917.9106       4.0962540
       4919.1105       4.0808000
       4920.3104       4.0422020
       4921.5103       4.0431380
       4922.7103       4.0819640
       4923.9102       4.1030640
       4925.1101       4.1146160
       4926.3100       4.1270400
       4927.5099       4.1870000
       4928.7098       4.1988360
       4929.9098       4.1758080
       4931.1097       4.2080380
       4932.3096       4.1826040
       4933.5095       4.2137380
       4934.7094       4.2281820
       4935.9093       4.2259640
       4937.1092       4.2044340
       4938.3091       4.2268800
       4939.5090       4.2560280
       4940.7089       4.2607380
       4941.9088       4.2168580
       4943.1087       4.2018200
       4944.3086       4.2159040
       4945.5086       4.2023040
       4946.7085       4.2177000
       4947.9084       4.1968620
       4949.1083       4.1341000
       4950.3083       4.1512280
       4951.5082       4.1367180
       4952.7081       4.1274620
       4953.9080       4.1237420
       4955.1079       4.0414220
       4956.3078       4.0441200
       4957.5077       4.0046180
       4958.7076       4.0380540
       4959.9075       4.0311180
       4961.1075       3.9893680
       4962.3074       4.0096440
       4963.5073       3.9841380
       4964.7072       3.9342160
       4965.9071       3.9163160
       4967.1070       3.8734900
       4968.3069       3.8179300
       4969.5068       3.8098700
       4970.7067       3.7826940
       4971.9066       3.7741080
       4973.1065       3.7196300
       4974.3064       3.6385720
       4975.5063       3.6246700
       4976.7063       3.6347140
       4977.9062       3.5559660
       4979.1062       3.4913540
       4980.3061       3.4958500
       4981.5060       3.4367580
       4982.7059       3.3797940
       4983.9058       3.3137080
       4985.1057       3.2962060
       4986.3056       3.3381400
       4987.5055       3.2708980
       4988.7054       3.2074800
       4989.9053       3.1840040
       4991.1052       3.1904300
       4992.3052       3.2035740
       4993.5051       3.1521060
       4994.7050       3.1209500
       4995.9049       3.1113140
       4997.1048       3.1158780
       4998.3047       3.0809980
       4999.5046       3.0098400
       5000.7045       3.0576620
       5001.9044       3.0748760
       5003.1043       3.0032340
       5004.3042       2.9558540
       5005.5041       2.9888380
       5006.7040       3.0222560
       5007.9041       2.9620080
       5009.1040       2.9447500
       5010.3039       2.9481960
       5011.5038       2.9077740
       5012.7037       2.9481820
       5013.9036       2.9487660
       5015.1035       2.9530960
       5016.3034       2.9852520
       5017.5033       2.9554940
       5018.7032       2.9318480
       5019.9031       2.9436480
       5021.1030       2.9617760
       5022.3029       2.9786780
       5023.5029       2.9637500
       5024.7028       2.9611300
       5025.9027       3.0119000
       5027.1026       3.0691440
       5028.3025       3.0889160
       5029.5024       3.1548380
       5030.7023       3.1820680
       5031.9022       3.1215940
       5033.1021       3.0785720
       5034.3020       3.0595720
       5035.5019       3.0263680
       5036.7019       3.0453420
       5037.9019       3.0737460
       5039.1018       3.1375900
       5040.3017       3.1354120
       5041.5016       3.1607320
       5042.7015       3.2185540
       5043.9014       3.1985500
       5045.1013       3.1524080
       5046.3012       3.1571820
       5047.5011       3.1480460
       5048.7010       3.2086860
       5049.9009       3.2526420
       5051.1008       3.2436720
       5052.3007       3.2727240
       5053.5007       3.3270800
       5054.7006       3.3326560
       5055.9005       3.3292940
       5057.1004       3.3488660
       5058.3003       3.3453620
       5059.5002       3.3519540
       5060.7001       3.3454960
       5061.9000       3.3701900
       5063.0999       3.4239320
       5064.2998       3.4586040
       5065.4998       3.4852220
       5066.6997       3.5157840
       5067.8996       3.5110820
       5069.0996       3.4687460
       5070.2995       3.4620920
       5071.4994       3.5674440
       5072.6993       3.5668800
       5073.8992       3.5345140
       5075.0991       3.5532340
       5076.2990       3.5798520
       5077.4989       3.5836580
       5078.6988       3.5457660
       5079.8987       3.6171560
       5081.0986       3.6980660
       5082.2985       3.6588240
       5083.4984       3.6629680
       5084.6984       3.7208480
       5085.8983       3.6620440
       5087.0982       3.6720980
       5088.2981       3.6843800
       5089.4980       3.7479580
       5090.6979       3.6453060
       5091.8978       3.7483260
       5093.0977       3.7245500
       5094.2977       3.7137360
       5095.4976       3.7458460
       5096.6975       3.7531480
       5097.8974       3.7493580
       5099.0973       3.8248960
       5100.2973       3.7946960
       5101.4972       3.8725800
       5102.6971       3.8425160
       5103.8970       3.7678200
       5105.0969       3.7831640
       5106.2968       3.8510400
       5107.4967       3.8580700
       5108.6966       3.8051300
       5109.8965       3.7972820
       5111.0964       3.8689480
       5112.2963       3.8552020
       5113.4962       3.8654920
       5114.6961       3.8604880
       5115.8961       3.8520180
       5117.0960       3.8724400
       5118.2959       3.8727640
       5119.4958       3.8377140
       5120.6957       3.8671200
       5121.8956       3.8531920
       5123.0956       3.8330360
       5124.2955       3.7768400
       5125.4954       3.7681480
       5126.6953       3.8330680
       5127.8952       3.8093140
       5129.0951       3.8609600
       5130.2950       3.8088320
       5131.4950       3.7635600
       5132.6949       3.7557600
       5133.8948       3.8442800
       5135.0947       3.9293900
       5136.2946       3.8321560
       5137.4945       3.8496780
       5138.6944       3.8668020
       5139.8943       3.9024180
       5141.0942       3.7941580
       5142.2941       3.8706260
       5143.4940       3.8899040
       5144.6939       3.8605680
       5145.8938       3.8910440
       5147.0938       3.9278620
       5148.2937       3.8283600
       5149.4936       3.8686200
       5150.6935       3.9493080
       5151.8935       3.9018360
       5153.0934       3.9636300
       5154.2933       3.9989900
       5155.4932       4.0325380
       5156.6931       4.0796540
       5157.8930       3.9959660
       5159.0929       4.1554340
       5160.2928       4.0682420
       5161.4927       4.1483960
       5162.6927       4.1650080
       5163.8926       4.1320260
       5165.0925       4.2666960
       5166.2924       4.1426000
       5167.4923       4.1513720
       5168.6922       4.2536400
       5169.8921       4.2872800
       5171.0920       4.2665040
       5172.2919       4.3029540
       5173.4918       4.3820240
       5174.6917       4.3698900
       5175.8916       4.4387280
       5177.0915       4.4946400
       5178.2915       4.4886000
       5179.4914       4.5326800
       5180.6914       4.5271520
       5181.8913       4.5137640
       5183.0912       4.5929520
       5184.2911       4.6149760
       5185.4910       4.6714060
       5186.6909       4.6701700
       5187.8908       4.7379400
       5189.0907       4.6878120
       5190.2906       4.6154320
       5191.4905       4.7265120
       5192.6905       4.8109100
       5193.8904       4.8638980
       5195.0903       4.8209980
       5196.2902       4.8160320
       5197.4901       4.8528100
       5198.6900       4.9123420
       5199.8899       4.9463080
       5201.0898       5.0101160
       5202.2897       4.9593580
       5203.4896       5.0371440
       5204.6895       5.0139580
       5205.8894       5.0247820
       5207.0893       5.0747180
       5208.2893       5.0594680
       5209.4893       5.0314820
       5210.6892       5.1292060
       5211.8891       5.1649820
       5213.0890       5.1157660
       5214.2889       5.1602020
       5215.4888       5.1337560
       5216.6887       5.1686500
       5217.8886       5.2100100
       5219.0885       5.1524420
       5220.2884       5.1903620
       5221.4883       5.2443060
       5222.6882       5.2355800
       5223.8882       5.2255560
       5225.0881       5.2132040
       5226.2880       5.2249680
       5227.4879       5.2177680
       5228.6878       5.2344460
       5229.8877       5.2652620
       5231.0876       5.2345680
       5232.2875       5.2290060
       5233.4874       5.2161240
       5234.6873       5.1682820
       5235.8872       5.1527120
       5237.0871       5.1832980
       5238.2871       5.1874000
       5239.4871       5.2058940
       5240.6870       5.2291240
       5241.8869       5.2610960
       5243.0868       5.2620840
       5244.2867       5.2795760
       5245.4866       5.3241320
       5246.6865       5.3130900
       5247.8864       5.3126400
       5249.0863       5.3105340
       5250.2862       5.2762020
       5251.4861       5.3228140
       5252.6860       5.2913820
       5253.8859       5.2891580
       5255.0859       5.2670440
       5256.2858       5.2394120
       5257.4857       5.2715260
       5258.6856       5.3301120
       5259.8855       5.3016440
       5261.0854       5.2698620
       5262.2853       5.2779020
       5263.4852       5.2453900
       5264.6851       5.2815080
       5265.8850       5.3054720
       5267.0850       5.2481320
       5268.2849       5.3018780
       5269.4848       5.3422640
       5270.6848       5.4677280
       5271.8847       5.5128300
       5273.0846       5.5406420
       5274.2845       5.3217440
       5275.4844       5.3135680
       5276.6843       5.4231960
       5277.8842       5.3708920
       5279.0841       5.3642800
       5280.2840       5.3462800
       5281.4839       5.3512620
       5282.6838       5.3734360
       5283.8837       5.3039180
       5285.0836       5.3238120
       5286.2836       5.3687380
       5287.4835       5.3140480
       5288.6834       5.3918840
       5289.8833       5.2602720
       5291.0832       5.2966160
       5292.2831       5.2139040
       5293.4830       5.2740580
       5294.6829       5.2850240
       5295.8829       5.2426560
       5297.0828       5.1453820
       5298.2827       5.2019400
       5299.4826       5.2064720
       5300.6825       5.1284020
       5301.8825       5.1712420
       5303.0824       5.1993640
       5304.2823       5.2081720
       5305.4822       5.1466840
       5306.6821       5.1071620
       5307.8820       5.0428380
       5309.0819       5.1364360
       5310.2818       5.0996660
       5311.4817       5.0080880
       5312.6816       5.0176680
       5313.8815       5.0192560
       5315.0814       5.0480020
       5316.2813       5.0530960
       5317.4813       5.0879160
       5318.6812       4.9995580
       5319.8811       4.9418320
       5321.0810       4.9288960
       5322.2809       5.0170340
       5323.4808       4.9146160
       5324.6808       4.8958520
       5325.8807       4.8599160
       5327.0806       4.8586240
       5328.2805       4.8475080
       5329.4804       4.8562140
       5330.6803       4.8279740
       5331.8803       4.7801140
       5333.0802       4.8180420
       5334.2801       4.8256400
       5335.4800       4.8025820
       5336.6799       4.8631940
       5337.8798       4.8953460
       5339.0797       4.8477960
       5340.2796       4.7869140
       5341.4795       4.7888260
       5342.6794       4.7532680
       5343.8793       4.7659540
       5345.0792       4.7676880
       5346.2791       4.7353860
       5347.4791       4.7260320
       5348.6790       4.7592580
       5349.8789       4.7585420
       5351.0788       4.7170420
       5352.2788       4.7479060
       5353.4787       4.8132360
       5354.6786       4.8391580
       5355.8785       4.7960760
       5357.0784       4.8080520
       5358.2783       4.8938220
       5359.4782       4.8390500
       5360.6781       4.8510160
       5361.8780       4.9025320
       5363.0780       4.8477520
       5364.2779       4.8124420
       5365.4778       4.8693020
       5366.6777       4.8746460
       5367.8776       4.8849040
       5369.0775       4.8006400
       5370.2774       4.7930500
       5371.4773       4.8901200
       5372.6772       4.8971320
       5373.8771       4.8612460
       5375.0770       4.8768120
       5376.2769       4.8815560
       5377.4768       4.9461580
       5378.6768       4.9413220
       5379.8767       4.9920040
       5381.0767       4.9768280
       5382.2766       4.9914980
       5383.4765       4.9061680
       5384.6764       4.9562120
       5385.8763       4.9652420
       5387.0762       4.9954680
       5388.2761       5.0337840
       5389.4760       4.9514800
       5390.6759       4.9416700
       5391.8758       4.9965660
       5393.0757       4.9740980
       5394.2757       5.0015480
       5395.4756       5.0087600
       5396.6755       4.9519960
       5397.8754       5.0186000
       5399.0753       4.9930520
       5400.2752       5.0236460
       5401.4751       4.9310960
       5402.6750       4.9622120
       5403.8749       5.0504980
       5405.0748       5.0431380
       5406.2747       4.9492520
       5407.4746       5.0208500
       5408.6745       5.0599860
       5409.8746       5.0456200
       5411.0745       5.0967360
       5412.2744       5.0587200
       5413.4743       5.1030360
       5414.6742       5.0367480
       5415.8741       5.0038840
       5417.0740       5.0422540
       5418.2739       5.0514500
       5419.4738       5.0290380
       5420.6737       4.9693260
       5421.8736       5.0120960
       5423.0735       5.0675500
       5424.2734       5.0612820
       5425.4734       4.9783420
       5426.6733       4.9128580
       5427.8732       4.9717120
       5429.0731       4.9299240
       5430.2730       4.9316700
       5431.4729       4.8807140
       5432.6728       4.8553440
       5433.8727       4.8927160
       5435.0726       4.9049180
       5436.2725       4.9146940
       5437.4724       4.9161580
       5438.6724       4.8439780
       5439.8723       4.8389200
       5441.0723       4.8183160
       5442.2722       4.7765540
       5443.4721       4.8045060
       5444.6720       4.8006140
       5445.8719       4.7751420
       5447.0718       4.7750960
       5448.2717       4.7385320
       5449.4716       4.7168020
       5450.6715       4.7367060
       5451.8714       4.7526700
       5453.0713       4.7473960
       5454.2712       4.6894580
       5455.4711       4.6775420
       5456.6711       4.6401220
       5457.8710       4.5938560
       5459.0709       4.6153540
       5460.2708       4.5672180
       5461.4707       4.5838240
       5462.6706       4.6124840
       5463.8705       4.5791600
       5465.0704       4.5272340
       5466.2703       4.4703700
       5467.4703       4.4491060
       5468.6702       4.4844400
       5469.8701       4.4816600
       5471.0700       4.4582340
       5472.2700       4.4116920
       5473.4699       4.3711100
       5474.6698       4.3692800
       5475.8697       4.3506680
       5477.0696       4.3061560
       5478.2695       4.2847080
       5479.4694       4.2337520
       5480.6693       4.2605300
       5481.8692       4.2851540
       5483.0691       4.3117940
       5484.2690       4.2534120
       5485.4689       4.2872200
       5486.6689       4.2949780
       5487.8688       4.3366960
       5489.0687       4.2183560
       5490.2686       4.2872760
       5491.4685       4.2123580
       5492.6684       4.1561480
       5493.8683       4.1989900
       5495.0682       4.1779340
       5496.2682       4.2295820
       5497.4681       4.1972160
       5498.6680       4.1698060
       5499.8679       4.1410480
       5501.0678       4.1769500
       5502.2678       4.1601700
       5503.4677       4.1756840
       5504.6676       4.1604200
       5505.8675       4.1529480
       5507.0674       4.1093600
       5508.2673       4.0696060
       5509.4672       4.1010440
       5510.6671       4.1157040
       5511.8670       4.0962020
       5513.0669       4.1084480
       5514.2668       4.0972680
       5515.4667       4.1569140
       5516.6666       4.1599340
       5517.8666       4.1192960
       5519.0665       4.1033960
       5520.2664       4.0518380
       5521.4663       4.0507760
       5522.6662       4.1270140
       5523.8661       4.1505960
       5525.0661       4.1152980
       5526.2660       4.1078840
       5527.4659       4.1074600
       5528.6658       4.1365960
       5529.8657       4.1316640
       5531.0656       4.1278120
       5532.2655       4.1285920
       5533.4655       4.1156280
       5534.6654       4.1411680
       5535.8653       4.1656020
       5537.0652       4.1933420
       5538.2651       4.1821560
       5539.4650       4.2111540
       5540.6649       4.2634240
       5541.8648       4.2552880
       5543.0647       4.1927420
       5544.2646       4.2640520
       5545.4645       4.2211440
       5546.6644       4.2020140
       5547.8643       4.1752220
       5549.0643       4.1960860
       5550.2642       4.2560940
       5551.4641       4.2714220
       5552.6640       4.3041500
       5553.8640       4.3177200
       5555.0639       4.2798780
       5556.2638       4.2534920
       5557.4637       4.2823080
       5558.6636       4.3248660
       5559.8635       4.2955900
       5561.0634       4.3012400
       5562.2633       4.3385060
       5563.4632       4.3132040
       5564.6632       4.3093380
       5565.8631       4.2818780
       5567.0630       4.3573240
       5568.2629       4.3533920
       5569.4628       4.2887800
       5570.6627       4.2757820
       5571.8626       4.3260760
       5573.0625       4.4564360
       5574.2624       4.7501500
       5575.4623       5.0752080
       5576.6622       5.4062660
       5577.8621       5.3254540
       5579.0620       5.0777600
       5580.2620       4.7312620
       5581.4619       4.5025180
       5582.6619       4.3600440
       5583.8618       4.3124140
       5585.0617       4.3173660
       5586.2616       4.1967340
       5587.4615       4.2336860
       5588.6614       4.2469900
       5589.8613       4.2496040
       5591.0612       4.2282380
       5592.2611       4.2612200
       5593.4610       4.3083040
       5594.6609       4.2878100
       5595.8609       4.2522360
       5597.0608       4.2122220
       5598.2607       4.1750920
       5599.4606       4.1373380
       5600.6605       4.1551200
       5601.8604       4.1833740
       5603.0603       4.1537660
       5604.2602       4.1357780
       5605.4601       4.1608460
       5606.6600       4.1702340
       5607.8599       4.0984660
       5609.0598       4.0832240
       5610.2597       4.1461260
       5611.4598       4.1218780
       5612.6597       4.0905200
       5613.8596       4.0833080
       5615.0595       4.0555960
       5616.2594       4.0046700
       5617.4593       3.9903160
       5618.6592       4.0084180
       5619.8591       3.9987380
       5621.0590       4.0291480
       5622.2589       3.9146520
       5623.4588       3.9328540
       5624.6587       3.9358420
       5625.8586       3.8833220
       5627.0586       3.8819220
       5628.2585       3.8813800
       5629.4584       3.8972540
       5630.6583       3.8406140
       5631.8582       3.8819480
       5633.0581       3.8164780
       5634.2580       3.9041940
       5635.4579       3.7619100
       5636.6578       3.7748260
       5637.8577       3.7631320
       5639.0576       3.7702520
       5640.2576       3.7868300
       5641.4576       3.7161720
       5642.6575       3.7438220
       5643.8574       3.7102920
       5645.0573       3.6480960
       5646.2572       3.6727980
       5647.4571       3.6926180
       5648.6570       3.6756100
       5649.8569       3.6768540
       5651.0568       3.6614100
       5652.2567       3.6144740
       5653.4566       3.6267180
       5654.6565       3.6272400
       5655.8564       3.5752440
       5657.0564       3.5525900
       5658.2563       3.5485660
       5659.4562       3.5528600
       5660.6561       3.5299380
       5661.8560       3.5268560
       5663.0559       3.4852000
       5664.2558       3.4728560
       5665.4557       3.5276440
       5666.6556       3.5034600
       5667.8555       3.4463520
       5669.0555       3.4191160
       5670.2554       3.4567500
       5671.4553       3.4901700
       5672.6553       3.4520880
       5673.8552       3.3870900
       5675.0551       3.3491400
       5676.2550       3.3798080
       5677.4549       3.3732300
       5678.6548       3.3761300
       5679.8547       3.4216380
       5681.0546       3.3995320
       5682.2545       3.3752860
       5683.4544       3.3392320
       5684.6543       3.3073920
       5685.8542       3.3577560
       5687.0541       3.3149140
       5688.2541       3.3213660
       5689.4540       3.3608820
       5690.6539       3.3471740
       5691.8538       3.3720580
       5693.0537       3.3000480
       5694.2536       3.3276960
       5695.4535       3.3010320
       5696.6534       3.3702260
       5697.8534       3.3716380
       5699.0533       3.2619940
       5700.2532       3.3275400
       5701.4531       3.2921740
       5702.6530       3.2794980
       5703.8530       3.3503900
       5705.0529       3.2971760
       5706.2528       3.3044280
       5707.4527       3.3899900
       5708.6526       3.3359800
       5709.8525       3.2766520
       5711.0524       3.3457080
       5712.2523       3.3473360
       5713.4522       3.3017420
       5714.6521       3.2955160
       5715.8520       3.2842220
       5717.0519       3.3512140
       5718.2518       3.3674360
       5719.4518       3.3654120
       5720.6517       3.3784120
       5721.8516       3.3947960
       5723.0515       3.3828500
       5724.2514       3.3700460
       5725.4513       3.3734960
       5726.6513       3.3961300
       5727.8512       3.3853480
       5729.0511       3.3994700
       5730.2510       3.4342880
       5731.4509       3.4469560
       5732.6508       3.4150980
       5733.8507       3.4422720
       5735.0507       3.4625100
       5736.2506       3.4361260
       5737.4505       3.4596220
       5738.6504       3.4110720
       5739.8503       3.5313740
       5741.0502       3.5352860
       5742.2501       3.5032640
       5743.4500       3.5518660
       5744.6499       3.5695400
       5745.8498       3.5631300
       5747.0497       3.5398620
       5748.2496       3.6001920
       5749.4495       3.6232920
       5750.6495       3.6392860
       5751.8494       3.5556420
       5753.0493       3.5700440
       5754.2492       3.6173920
       5755.4492       3.6024180
       5756.6491       3.6566780
       5757.8490       3.6246460
       5759.0489       3.6174780
       5760.2488       3.6837000
       5761.4487       3.6074840
       5762.6486       3.7016300
       5763.8485       3.6519140
       5765.0484       3.6900460
       5766.2484       3.7229760
       5767.4483       3.7457340
       5768.6482       3.6416220
       5769.8481       3.6797580
       5771.0480       3.6592040
       5772.2479       3.6737060
       5773.4478       3.6805040
       5774.6477       3.6207140
       5775.8476       3.6737800
       5777.0475       3.6961560
       5778.2474       3.6534760
       5779.4473       3.6555740
       5780.6473       3.6646440
       5781.8472       3.6274280
       5783.0472       3.6824820
       5784.2471       3.6739440
       5785.4470       3.6564940
       5786.6469       3.6661600
       5787.8468       3.6908280
       5789.0467       3.6786040
       5790.2466       3.6630680
       5791.4465       3.6707720
       5792.6464       3.6547900
       5793.8463       3.6901520
       5795.0462       3.6978580
       5796.2462       3.6716460
       5797.4461       3.7003820
       5798.6460       3.6776280
       5799.8459       3.6681460
       5801.0458       3.6526480
       5802.2457       3.6304000
       5803.4456       3.6013100
       5804.6455       3.6084820
       5805.8454       3.6675020
       5807.0453       3.6496800
       5808.2452       3.5781060
       5809.4451       3.6387540
       5810.6450       3.6084500
       5811.8451       3.6361640
       5813.0450       3.6348980
       5814.2449       3.6365820
       5815.4448       3.5999440
       5816.6447       3.6133180
       5817.8446       3.6708380
       5819.0445       3.5854420
       5820.2444       3.5749680
       5821.4443       3.6108040
       5822.6442       3.5937280
       5823.8441       3.5994100
       5825.0440       3.6103260
       5826.2439       3.6188400
       5827.4439       3.5711540
       5828.6438       3.6721940
       5829.8437       3.6387660
       5831.0436       3.6354120
       5832.2435       3.5840140
       5833.4434       3.5928820
       5834.6433       3.6076280
       5835.8432       3.6535960
       5837.0431       3.6630820
       5838.2430       3.6675880
       5839.4429       3.6812400
       5840.6429       3.6881920
       5841.8428       3.7251020
       5843.0428       3.7394280
       5844.2427       3.7114460
       5845.4426       3.6995360
       5846.6425       3.7156240
       5847.8424       3.7115760
       5849.0423       3.7002340
       5850.2422       3.7300100
       5851.4421       3.7174600
       5852.6420       3.7011940
       5853.8419       3.7185780
       5855.0418       3.7391820
       5856.2417       3.7345680
       5857.4416       3.7159840
       5858.6416       3.7383920
       5859.8415       3.7174260
       5861.0414       3.7070740
       5862.2413       3.7301240
       5863.4412       3.7857840
       5864.6411       3.7933700
       5865.8410       3.7516100
       5867.0409       3.7772540
       5868.2408       3.7729420
       5869.4408       3.7625660
       5870.6407       3.7197340
       5871.8406       3.7340400
       5873.0405       3.6938000
       5874.2405       3.7806340
       5875.4404       3.7338800
       5876.6403       3.8122120
       5877.8402       3.7888040
       5879.0401       3.7511300
       5880.2400       3.7617340
       5881.4399       3.7195580
       5882.6398       3.7578760
       5883.8397       3.7095320
       5885.0396       3.6806280
       5886.2395       3.6683740
       5887.4394       3.7275720
       5888.6393       3.7139820
       5889.8393       3.7498160
       5891.0392       3.7366980
       5892.2391       3.6919940
       5893.4390       3.6632360
       5894.6389       3.6371740
       5895.8388       3.6342340
       5897.0387       3.6280800
       5898.2387       3.6044380
       5899.4386       3.5939820
       5900.6385       3.6148720
       5901.8384       3.5785980
       5903.0383       3.5656340
       5904.2382       3.5975160
       5905.4382       3.5776620
       5906.6381       3.5838920
       5907.8380       3.6087360
       5909.0379       3.6013660
       5910.2378       3.6044660
       5911.4377       3.5896380
       5912.6376       3.5128800
       5913.8375       3.4520420
       5915.0374       3.3693940
       5916.2373       3.3725880
       5917.4372       3.3205860
       5918.6371       3.3273740
       5919.8370       3.3651940
       5921.0370       3.3941320
       5922.2369       3.2835200
       5923.4368       3.3599980
       5924.6367       3.3298140
       5925.8366       3.3871600
       5927.0366       3.4418120
       5928.2365       3.3456480
       5929.4364       3.3814760
       5930.6363       3.3513620
       5931.8362       3.3188520
       5933.0361       3.3512920
       5934.2360       3.3336120
       5935.4360       3.3484740
       5936.6359       3.2871520
       5937.8358       3.2980060
       5939.0357       3.2847780
       5940.2356       3.2647680
       5941.4355       3.2046440
       5942.6354       3.2530020
       5943.8353       3.2717460
       5945.0352       3.2621080
       5946.2351       3.2643760
       5947.4350       3.2808460
       5948.6349       3.2590520
       5949.8348       3.2386860
       5951.0348       3.2556180
       5952.2347       3.2603840
       5953.4346       3.2640560
       5954.6345       3.2633980
       5955.8345       3.2379500
       5957.0344       3.2221740
       5958.2343       3.2172680
       5959.4342       3.2285500
       5960.6341       3.2141880
       5961.8340       3.2304720
       5963.0339       3.2339460
       5964.2338       3.2966600
       5965.4337       3.2368340
       5966.6337       3.2488820
       5967.8336       3.2377760
       5969.0335       3.2380760
       5970.2334       3.2348940
       5971.4333       3.2912000
       5972.6332       3.2499280
       5973.8331       3.3125820
       5975.0330       3.3093600
       5976.2329       3.2739820
       5977.4328       3.2919880
       5978.6327       3.2793500
       5979.8326       3.2513080
       5981.0325       3.2322660
       5982.2325       3.2589940
       5983.4324       3.3477820
       5984.6324       3.2644180
       5985.8323       3.2936260
       5987.0322       3.3347540
       5988.2321       3.2955420
       5989.4320       3.3242280
       5990.6319       3.3506540
       5991.8318       3.3885000
       5993.0317       3.3688020
       5994.2316       3.3677360
       5995.4315       3.3350500
       5996.6314       3.3591060
       5997.8314       3.3971280
       5999.0313       3.3791460
       6000.2312       3.3507540
       6001.4311       3.3400560
       6002.6310       3.3470660
       6003.8309       3.3586920
       6005.0308       3.3318580
       6006.2307       3.3116820
       6007.4306       3.3246760
       6008.6305       3.3486220
       6009.8304       3.3300760
       6011.0303       3.2775060
       6012.2302       3.3101480
       6013.4303       3.3417760
       6014.6302       3.3053840
       6015.8301       3.2906020
       6017.0300       3.3113020
       6018.2299       3.3013580
       6019.4298       3.3227140
       6020.6297       3.2618580
       6021.8296       3.3156980
       6023.0295       3.2956820
       6024.2294       3.3240000
       6025.4293       3.2788220
       6026.6292       3.3243600
       6027.8291       3.2767580
       6029.0291       3.2890000
       6030.2290       3.2751400
       6031.4289       3.2497200
       6032.6288       3.2163640
       6033.8287       3.2392100
       6035.0286       3.2827860
       6036.2285       3.2830220
       6037.4284       3.2050020
       6038.6283       3.2134960
       6039.8282       3.2440860
       6041.0281       3.2122280
       6042.2281       3.2553420
       6043.4280       3.2737940
       6044.6280       3.2322160
       6045.8279       3.2402200
       6047.0278       3.2681900
       6048.2277       3.2516600
       6049.4276       3.2725060
       6050.6275       3.2899580
       6051.8274       3.2848800
       6053.0273       3.3072840
       6054.2272       3.3062820
       6055.4271       3.2879080
       6056.6270       3.3074800
       6057.8269       3.3078580
       6059.0268       3.3242160
       6060.2268       3.3199680
       6061.4267       3.3196660
       6062.6266       3.3388320
       6063.8265       3.3100680
       6065.0264       3.3018060
       6066.2263       3.3455880
       6067.4262       3.3558120
       6068.6261       3.4016620
       6069.8260       3.3714380
       6071.0260       3.4714060
       6072.2259       3.4072020
       6073.4258       3.4345180
       6074.6257       3.4096660
       6075.8257       3.4370940
       6077.0256       3.4433720
       6078.2255       3.4660540
       6079.4254       3.5148280
       6080.6253       3.5029840
       6081.8252       3.5006000
       6083.0251       3.4931640
       6084.2250       3.4784080
       6085.4249       3.5233500
       6086.6248       3.5087340
       6087.8247       3.5632120
       6089.0246       3.5670900
       6090.2246       3.5324720
       6091.4245       3.5483880
       6092.6244       3.5349320
       6093.8243       3.5644840
       6095.0242       3.5579980
       6096.2241       3.5847400
       6097.4240       3.5836440
       6098.6239       3.5460880
       6099.8239       3.5825980
       6101.0238       3.6067100
       6102.2237       3.5771820
       6103.4236       3.5893900
       6104.6235       3.5968180
       6105.8235       3.5774380
       6107.0234       3.5413620
       6108.2233       3.5769900
       6109.4232       3.6002580
       6110.6231       3.5649500
       6111.8230       3.5261240
       6113.0229       3.5417140
       6114.2228       3.5188860
       6115.4227       3.4330800
       6116.6226       3.4934120
       6117.8225       3.4761180
       6119.0224       3.3978900
       6120.2223       3.4124120
       6121.4223       3.3722940
       6122.6222       3.3743760
       6123.8221       3.3705100
       6125.0220       3.3358540
       6126.2219       3.2550980
       6127.4218       3.2375640
       6128.6218       3.2111540
       6129.8217       3.2685320
       6131.0216       3.2122260
       6132.2215       3.2255900
       6133.4214       3.1598900
       6134.6213       3.0738860
       6135.8212       3.0368820
       6137.0212       3.0717380
       6138.2211       3.0104680
       6139.4210       2.9579000
       6140.6209       2.9681860
       6141.8208       2.9300500
       6143.0207       2.9213160
       6144.2206       2.9117200
       6145.4205       2.8939940
       6146.6204       2.8508600
       6147.8203       2.7801400
       6149.0202       2.7851140
       6150.2201       2.7864280
       6151.4200       2.7430100
       6152.6200       2.7451600
       6153.8199       2.7018380
       6155.0198       2.6353720
       6156.2197       2.6085360
       6157.4197       2.6151720
       6158.6196       2.6193680
       6159.8195       2.6338760
       6161.0194       2.5831340
       6162.2193       2.5096640
       6163.4192       2.5271500
       6164.6191       2.5042380
       6165.8190       2.5051680
       6167.0189       2.4940800
       6168.2189       2.4482120
       6169.4188       2.4410740
       6170.6187       2.5021200
       6171.8186       2.4702520
       6173.0185       2.4263800
       6174.2184       2.4555080
       6175.4183       2.4429400
       6176.6182       2.4587300
       6177.8181       2.4479940
       6179.0180       2.4077520
       6180.2179       2.4237480
       6181.4178       2.4253320
       6182.6177       2.4225580
       6183.8177       2.4111220
       6185.0177       2.4094860
       6186.2176       2.3662980
       6187.4175       2.3742100
       6188.6174       2.4126520
       6189.8173       2.4011020
       6191.0172       2.3789120
       6192.2171       2.3596140
       6193.4170       2.3639960
       6194.6169       2.4143720
       6195.8168       2.4038260
       6197.0167       2.3729200
       6198.2166       2.3861780
       6199.4166       2.4152140
       6200.6165       2.4375540
       6201.8164       2.4483940
       6203.0163       2.4331320
       6204.2162       2.4428380
       6205.4161       2.4412200
       6206.6160       2.4675080
       6207.8159       2.4986400
       6209.0158       2.4835460
       6210.2157       2.4378860
       6211.4156       2.4577300
       6212.6155       2.4445980
       6213.8155       2.4618160
       6215.0155       2.5076820
       6216.2154       2.5116220
       6217.4153       2.4608540
       6218.6152       2.5068080
       6219.8151       2.5143180
       6221.0150       2.5034300
       6222.2149       2.5649400
       6223.4148       2.5627060
       6224.6147       2.5663120
       6225.8146       2.5568700
       6227.0145       2.5936480
       6228.2144       2.6080060
       6229.4144       2.5787220
       6230.6143       2.5675020
       6231.8142       2.5880880
       6233.0141       2.6347360
       6234.2140       2.6520800
       6235.4139       2.6861760
       6236.6138       2.6869900
       6237.8137       2.6752400
       6239.0136       2.6943180
       6240.2135       2.6822360
       6241.4134       2.6850820
       6242.6134       2.7043360
       6243.8133       2.7059740
       6245.0133       2.7292160
       6246.2132       2.7126540
       6247.4131       2.7375320
       6248.6130       2.7623840
       6249.8129       2.7752900
       6251.0128       2.7863740
       6252.2127       2.8054300
       6253.4126       2.7809660
       6254.6125       2.8321700
       6255.8124       2.8737100
       6257.0123       2.8871260
       6258.2122       2.8399180
       6259.4121       2.8551900
       6260.6121       2.8559120
       6261.8120       2.9042140
       6263.0119       2.9146440
       6264.2118       2.8810820
       6265.4117       2.9589340
       6266.6116       2.9041200
       6267.8115       2.9662300
       6269.0114       2.9375580
       6270.2113       2.9338280
       6271.4113       2.9459760
       6272.6112       2.9424560
       6273.8111       2.9496500
       6275.0110       2.8919320
       6276.2110       2.8891180
       6277.4109       2.8642160
       6278.6108       2.8231040
       6279.8107       2.8524520
       6281.0106       2.8982620
       6282.2105       2.9470120
       6283.4104       2.9813220
       6284.6103       2.9975700
       6285.8102       3.0282700
       6287.0101       3.0571920
       6288.2100       3.0909660
       6289.4099       3.0764480
       6290.6098       3.0749240
       6291.8098       3.0944220
       6293.0097       3.1001200
       6294.2096       3.1234420
       6295.4095       3.1456180
       6296.6094       3.1433000
       6297.8093       3.1731440
       6299.0092       3.1662920
       6300.2092       3.2132720
       6301.4091       3.2434320
       6302.6090       3.2472960
       6303.8089       3.1864920
       6305.0088       3.2538480
       6306.2087       3.2448420
       6307.4087       3.2434320
       6308.6086       3.2476880
       6309.8085       3.1906740
       6311.0084       3.2048080
       6312.2083       3.2243160
       6313.4082       3.2654960
       6314.6081       3.2132580
       6315.8080       3.3077740
       6317.0079       3.3218040
       6318.2078       3.3122920
       6319.4077       3.3140580
       6320.6076       3.2929380
       6321.8075       3.3297460
       6323.0075       3.3666740
       6324.2074       3.3498720
       6325.4073       3.3766660
       6326.6072       3.4030920
       6327.8071       3.3698260
       6329.0071       3.3762180
       6330.2070       3.4207920
       6331.4069       3.4293620
       6332.6068       3.4233540
       6333.8067       3.4304560
       6335.0066       3.4703620
       6336.2065       3.4226240
       6337.4064       3.4035160
       6338.6064       3.4034320
       6339.8063       3.4551040
       6341.0062       3.4769720
       6342.2061       3.4188880
       6343.4060       3.4334520
       6344.6059       3.4362600
       6345.8058       3.4566580
       6347.0057       3.4065120
       6348.2056       3.4915220
       6349.4055       3.4493260
       6350.6054       3.3969000
       6351.8053       3.4354140
       6353.0052       3.4917420
       6354.2052       3.4504100
       6355.4051       3.3939040
       6356.6050       3.4866940
       6357.8050       3.4254320
       6359.0049       3.3875120
       6360.2048       3.4060780
       6361.4047       3.4519900
       6362.6046       3.4542900
       6363.8045       3.4346220
       6365.0044       3.4097900
       6366.2043       3.3957620
       6367.4042       3.3683180
       6368.6041       3.3579540
       6369.8041       3.3738620
       6371.0040       3.3571300
       6372.2039       3.3352700
       6373.4038       3.3091220
       6374.6037       3.2906520
       6375.8036       3.2852520
       6377.0035       3.2878720
       6378.2034       3.2940280
       6379.4033       3.3120540
       6380.6032       3.2464540
       6381.8031       3.2897460
       6383.0030       3.2965080
       6384.2030       3.2200280
       6385.4029       3.2189940
       6386.6029       3.2266720
       6387.8028       3.2681700
       6389.0027       3.2310840
       6390.2026       3.2287340
       6391.4025       3.2511520
       6392.6024       3.2048980
       6393.8023       3.2096320
       6395.0022       3.2332820
       6396.2021       3.2126440
       6397.4020       3.1495520
       6398.6019       3.1236080
       6399.8019       3.1706820
       6401.0018       3.1676860
       6402.2017       3.1575100
       6403.4016       3.1669520
       6404.6015       3.2035140
       6405.8014       3.1932140
       6407.0013       3.1732340
       6408.2012       3.1598320
       6409.4011       3.1421040
       6410.6010       3.1379980
       6411.8009       3.1370700
       6413.0008       3.1332140
       6414.2007       3.1579880
       6415.4008       3.1474340
       6416.6007       3.1144920
       6417.8006       3.1332060
       6419.0005       3.1290160
       6420.2004       3.1504940
       6421.4003       3.1607000
       6422.6002       3.1621060
       6423.8001       3.0687980
       6425.0000       3.1454600
       6426.1999       3.1511220
       6427.3998       3.0906640
       6428.5997       3.1462780
       6429.7996       3.1330320
       6430.9996       3.0905040
       6432.1995       3.1224700
       6433.3994       3.1004520
       6434.5993       3.0820400
       6435.7992       3.0616060
       6436.9991       3.0924160
       6438.1990       3.1247940
       6439.3989       3.0740520
       6440.5988       3.0942960
       6441.7987       3.0998260
       6442.9986       3.1045540
       6444.1986       3.1162000
       6445.3985       3.1013100
       6446.5985       3.0969580
       6447.7984       3.0738540
       6448.9983       3.0702300
       6450.1982       3.0439340
       6451.3981       3.0570220
       6452.5980       3.0969660
       6453.7979       3.1002920
       6454.9978       3.0720080
       6456.1977       3.0655160
       6457.3976       3.0813040
       6458.5975       3.0842720
       6459.7974       3.0898960
       6460.9973       3.0764120
       6462.1973       3.0825260
       6463.3972       3.1071000
       6464.5971       3.1358160
       6465.7970       3.1282820
       6466.9969       3.1320620
       6468.1968       3.1034200
       6469.3967       3.1041980
       6470.5966       3.0824540
       6471.7965       3.0846140
       6472.9965       3.1324100
       6474.1964       3.0604880
       6475.3963       3.0697060
       6476.5962       3.0485380
       6477.7962       3.0232520
       6478.9961       3.1179460
       6480.1960       3.1232540
       6481.3959       3.1261100
       6482.5958       3.0557180
       6483.7957       3.0442040
       6484.9956       3.0604520
       6486.1955       3.1078960
       6487.3954       3.1468820
       6488.5953       3.1785220
       6489.7952       3.1692640
       6490.9951       3.1486180
       6492.1950       3.1691880
       6493.3950       3.1568960
       6494.5949       3.1416360
       6495.7948       3.1836620
       6496.9947       3.2099580
       6498.1946       3.2397500
       6499.3945       3.2288480
       6500.5944       3.1900920
       6501.7944       3.2203400
       6502.9943       3.1947960
       6504.1942       3.2480400
       6505.3941       3.2163560
       6506.5940       3.2056880
       6507.7939       3.2460620
       6508.9939       3.1968440
       6510.1938       3.2067040
       6511.3937       3.1983000
       6512.5936       3.1639500
       6513.7935       3.1945020
       6514.9934       3.2143020
       6516.1933       3.1930740
       6517.3932       3.1955920
       6518.5931       3.1654000
       6519.7930       3.2157240
       6520.9929       3.2282760
       6522.1928       3.2171500
       6523.3928       3.2779380
       6524.5927       3.2714920
       6525.7926       3.2641880
       6526.9925       3.2579060
       6528.1924       3.2497880
       6529.3923       3.2196120
       6530.5923       3.2281640
       6531.7922       3.2583140
       6532.9921       3.2790100
       6534.1920       3.2694320
       6535.3919       3.2602140
       6536.5918       3.2662320
       6537.7917       3.2515460
       6538.9917       3.2558440
       6540.1916       3.2800420
       6541.3915       3.2418000
       6542.5914       3.2119960
       6543.7913       3.2457840
       6544.9912       3.2365260
       6546.1911       3.1927580
       6547.3910       3.1876600
       6548.5909       3.1999940
       6549.7908       3.2239780
       6550.9907       3.1897580
       6552.1906       3.2000640
       6553.3905       3.2932680
       6554.5905       3.2010040
       6555.7904       3.2041540
       6556.9903       3.2187380
       6558.1902       3.2037640
       6559.3902       3.1380460
       6560.5901       3.1896980
       6561.7900       3.1406040
       6562.9899       3.1413760
       6564.1898       3.1349640
       6565.3897       3.0927420
       6566.5896       3.1066780
       6567.7895       3.1123180
       6568.9894       3.1568860
       6570.1894       3.1403260
       6571.3893       3.1089400
       6572.5892       3.0933320
       6573.7891       3.0956920
       6574.9890       3.1011200
       6576.1889       3.1121840
       6577.3888       3.0850720
       6578.5887       3.0611280
       6579.7886       3.0564200
       6580.9885       3.0277660
       6582.1884       3.0200880
       6583.3883       3.0037460
       6584.5882       2.9994060
       6585.7882       2.9725800
       6586.9882       3.0228960
       6588.1881       3.0218720
       6589.3880       3.0439380
       6590.5879       3.1380880
       6591.7878       3.1037460
       6592.9877       3.2016720
       6594.1876       3.0739240
       6595.3875       3.1245800
       6596.5874       3.0005180
       6597.7873       3.0110760
       6598.9872       3.0119040
       6600.1871       3.0261240
       6601.3871       3.0152740
       6602.5870       2.9929660
       6603.7869       2.9597920
       6604.9868       2.9698040
       6606.1867       2.9820300
       6607.3866       2.9924780
       6608.5865       2.9834620
       6609.7864       2.9909320
       6610.9863       3.0013440
       6612.1862       2.9883720
       6613.3861       2.9782740
       6614.5860       2.9786200
       6615.7860       2.9473340
       6616.9860       2.9222460
       6618.1859       2.9352700
       6619.3858       2.9148560
       6620.5857       2.9061180
       6621.7856       2.9393520
       6622.9855       2.9557600
       6624.1854       2.9718660
       6625.3853       2.9460740
       6626.5852       2.8954680
       6627.7851       2.9133600
       6628.9850       2.9520260
       6630.1849       2.9689680
       6631.3848       2.9640980
       6632.5848       2.9606320
       6633.7847       2.9267180
       6634.9846       2.9624600
       6636.1845       2.9287800
       6637.3844       2.9352980
       6638.5843       2.9821980
       6639.7842       3.0005800
       6640.9841       2.9816680
       6642.1840       2.9077720
       6643.3839       2.9345180
       6644.5839       2.9709240
       6645.7838       2.9595420
       6646.9837       2.9457420
       6648.1837       2.9226380
       6649.3836       2.9068440
       6650.5835       2.9348220
       6651.7834       2.9234780
       6652.9833       2.9185840
       6654.1832       2.9401080
       6655.3831       2.9168600
       6656.5830       2.9021960
       6657.7829       2.9136640
       6658.9828       2.9121320
       6660.1827       2.9167960
       6661.3826       2.9158560
       6662.5825       2.8876480
       6663.7825       2.8845440
       6664.9824       2.9022840
       6666.1823       2.9020680
       6667.3822       2.9019980
       6668.5821       2.9414960
       6669.7820       2.9045380
       6670.9819       2.8666780
       6672.1818       2.8780060
       6673.3818       2.8803560
       6674.5817       2.9282220
       6675.7816       2.8363580
       6676.9815       2.9050820
       6678.1815       2.8574360
       6679.3814       2.9651100
       6680.5813       2.9133140
       6681.7812       2.8184960
       6682.9811       2.8312000
       6684.1810       2.8105580
       6685.3809       2.8342760
       6686.5808       2.8479980
       6687.7807       2.8404720
       6688.9806       2.8498440
       6690.1805       2.8436000
       6691.3804       2.8167840
       6692.5803       2.8383240
       6693.7803       2.8255900
       6694.9802       2.8416020
       6696.1801       2.8334760
       6697.3800       2.8218740
       6698.5799       2.8105740
       6699.7798       2.8160380
       6700.9797       2.8536340
       6702.1797       2.8048360
       6703.3796       2.7564100
       6704.5795       2.7684360
       6705.7794       2.7601840
       6706.9793       2.7307520
       6708.1792       2.7893800
       6709.3792       2.7940260
       6710.5791       2.7471000
       6711.7790       2.7426540
       6712.9789       2.7541320
       6714.1788       2.7417820
       6715.3787       2.7482660
       6716.5786       2.7569460
       6717.7785       2.8131800
       6718.9784       2.7570240
       6720.1783       2.7716680
       6721.3782       2.7461180
       6722.5781       2.7204800
       6723.7780       2.7642880
       6724.9780       2.8108040
       6726.1779       2.7541540
       6727.3778       2.7245860
       6728.5777       2.7292200
       6729.7776       2.7183480
       6730.9776       2.7140680
       6732.1775       2.6870660
       6733.3774       2.6876360
       6734.5773       2.7119460
       6735.7772       2.7222240
       6736.9771       2.7072920
       6738.1770       2.6868400
       6739.3769       2.6949440
       6740.5769       2.6991860
       6741.7768       2.6823560
       6742.9767       2.6658140
       6744.1766       2.7066960
       6745.3765       2.7232320
       6746.5764       2.7358740
       6747.7763       2.7133360
       6748.9762       2.6856220
       6750.1761       2.6879280
       6751.3760       2.6678220
       6752.5759       2.6769500
       6753.7758       2.6888340
       6754.9757       2.6898040
       6756.1757       2.5915540
       6757.3756       2.6368440
       6758.5755       2.6500200
       6759.7755       2.6167460
       6760.9754       2.6305640
       6762.1753       2.6293780
       6763.3752       2.5880620
       6764.5751       2.5637380
       6765.7750       2.5798700
       6766.9749       2.5776500
       6768.1748       2.5824140
       6769.3747       2.5601200
       6770.5746       2.5394500
       6771.7746       2.5498060
       6772.9745       2.5834880
       6774.1744       2.5964940
       6775.3743       2.5857060
       6776.5742       2.5945740
       6777.7741       2.5962920
       6778.9740       2.5865580
       6780.1739       2.5742220
       6781.3738       2.5188200
       6782.5737       2.5066840
       6783.7736       2.5330860
       6784.9735       2.4956280
       6786.1734       2.4995340
       6787.3734       2.4971940
       6788.5734       2.4758900
       6789.7733       2.4501600
       6790.9732       2.4569960
       6792.1731       2.4815700
       6793.3730       2.4766720
       6794.5729       2.4791040
       6795.7728       2.4517700
       6796.9727       2.4931960
       6798.1726       2.4721760
       6799.3725       2.4713100
       6800.5724       2.4857900
       6801.7723       2.4698620
       6802.9723       2.4372460
       6804.1722       2.4820220
       6805.3721       2.4690840
       6806.5720       2.4588660
       6807.7719       2.4547440
       6808.9718       2.4569920
       6810.1717       2.4545000
       6811.3716       2.4211180
       6812.5715       2.4314800
       6813.7714       2.4250160
       6814.9713       2.3924280
       6816.1712       2.4112760
       6817.3712       2.4362320
       6818.5712       2.4155920
       6819.7711       2.3990680
       6820.9710       2.4153980
       6822.1709       2.4499540
       6823.3708       2.4503080
       6824.5707       2.4096940
       6825.7706       2.4491600
       6826.9705       2.5039900
       6828.1704       2.4766620
       6829.3703       2.5010760
       6830.5702       2.4891800
       6831.7701       2.4793700
       6832.9701       2.3995840
       6834.1700       2.4531120
       6835.3699       2.3852880
       6836.5698       2.4339520
       6837.7697       2.3700420
       6838.9696       2.3764160
       6840.1695       2.3829660
       6841.3694       2.3553640
       6842.5693       2.4066880
       6843.7692       2.3659660
       6844.9691       2.3722880
       6846.1691       2.3533460
       6847.3690       2.3665840
       6848.5690       2.3550600
       6849.7689       2.3698400
       6850.9688       2.4145100
       6852.1687       2.3918920
       6853.3686       2.3673460
       6854.5685       2.3659560
       6855.7684       2.3674660
       6856.9683       2.3908820
       6858.1682       2.4118460
       6859.3681       2.3878840
       6860.5680       2.3621880
       6861.7679       2.4103020
       6862.9678       2.4387880
       6864.1678       2.3772360
       6865.3677       2.3588260
       6866.5676       2.3443600
       6867.7675       2.3369100
       6868.9674       2.3223380
       6870.1673       2.3534820
       6871.3672       2.3434440
       6872.5671       2.3894680
       6873.7670       2.3523540
       6874.9670       2.3380580
       6876.1669       2.2946420
       6877.3668       2.3757600
       6878.5667       2.3497820
       6879.7667       2.4140200
       6880.9666       2.4096960
       6882.1665       2.4169780
       6883.3664       2.3115120
       6884.5663       2.3498440
       6885.7662       2.2928640
       6886.9661       2.2946620
       6888.1660       2.2777500
       6889.3659       2.2643940
       6890.5658       2.2840560
       6891.7657       2.2809700
       6892.9656       2.2782080
       6894.1655       2.2819740
       6895.3655       2.2906560
       6896.5654       2.2864720
       6897.7653       2.2795920
       6898.9652       2.2840340
       6900.1651       2.2990300
       6901.3650       2.3367100
       6902.5649       2.3540980
       6903.7649       2.3102720
       6904.9648       2.3088460
       6906.1647       2.2895860
       6907.3646       2.3230000
       6908.5645       2.3131580
       6909.7644       2.3517280
       6910.9644       2.3562440
       6912.1643       2.3525580
       6913.3642       2.3706760
       6914.5641       2.3267880
       6915.7640       2.3729500
       6916.9639       2.2560560
       6918.1638       2.2701340
       6919.3637       2.2998500
       6920.5636       2.3253300
       6921.7635       2.3877900
       6922.9634       2.3928920
       6924.1633       2.4079320
       6925.3632       2.3885080
       6926.5632       2.3847640
       6927.7631       2.3721840
       6928.9630       2.3850520
       6930.1629       2.3965780
       6931.3628       2.3834340
       6932.5628       2.3734760
       6933.7627       2.3847460
       6934.9626       2.3836780
       6936.1625       2.3689200
       6937.3624       2.3629580
       6938.5623       2.3249800
       6939.7622       2.3216580
       6940.9621       2.3691020
       6942.1621       2.3713540
       6943.3620       2.3836940
       6944.5619       2.3854580
       6945.7618       2.3630900
       6946.9617       2.3870100
       6948.1616       2.4051860
       6949.3615       2.4643680
       6950.5614       2.3912780
       6951.7613       2.4271540
       6952.9612       2.3692800
       6954.1611       2.3834820
       6955.3610       2.3153680
       6956.5609       2.3531920
       6957.7609       2.3139860
       6958.9608       2.3753980
       6960.1607       2.3685420
       6961.3607       2.3640800
       6962.5606       2.3400220
       6963.7605       2.3689800
       6964.9604       2.3908860
       6966.1603       2.3916860
       6967.3602       2.3646360
       6968.5601       2.3582380
       6969.7600       2.3922380
       6970.9599       2.3789820
       6972.1599       2.3775600
       6973.3598       2.3593960
       6974.5597       2.3787780
       6975.7596       2.4327020
       6976.9595       2.4037960
       6978.1594       2.4093240
       6979.3593       2.4372240
       6980.5592       2.4004940
       6981.7591       2.3957440
       6982.9590       2.3671320
       6984.1589       2.3287080
       6985.3588       2.3863160
       6986.5587       2.3840700
       6987.7587       2.4110840
       6988.9587       2.3505980
       6990.1586       2.3714960
       6991.3585       2.4032400
       6992.5584       2.3895540
       6993.7583       2.4195340
       6994.9582       2.4286100
       6996.1581       2.3877680
       6997.3580       2.3345360
       6998.5579       2.3295680
       6999.7578       2.3736520
       7000.9577       2.3470460
       7002.1576       2.3774120
       7003.3576       2.3604120
       7004.5575       2.3572540
       7005.7574       2.3397680
       7006.9573       2.3487060
       7008.1572       2.4084100
       7009.3571       2.4072160
       7010.5570       2.4306620
       7011.7569       2.4243760
       7012.9568       2.4118300
       7014.1567       2.3748680
       7015.3566       2.3830860
       7016.5565       2.3593120
       7017.7564       2.3443160
       7018.9565       2.3630500
       7020.1564       2.3828740
       7021.3563       2.3858820
       7022.5562       2.3391520
       7023.7561       2.3452060
       7024.9560       2.3194680
       7026.1559       2.3129600
       7027.3558       2.2993440
       7028.5557       2.2990100
       7029.7556       2.3109380
       7030.9555       2.3359240
       7032.1554       2.3660800
       7033.3553       2.3248340
       7034.5553       2.3452020
       7035.7552       2.3315100
       7036.9551       2.3451000
       7038.1550       2.3743760
       7039.3549       2.3564600
       7040.5548       2.3322240
       7041.7547       2.3199840
       7042.9546       2.3810120
       7044.1545       2.3548800
       7045.3544       2.3692180
       7046.5544       2.3588640
       7047.7543       2.3946680
       7048.9542       2.3941860
       7050.1542       2.3097380
       7051.3541       2.2840180
       7052.5540       2.3204880
       7053.7539       2.2840500
       7054.9538       2.2826780
       7056.1537       2.2917780
       7057.3536       2.2890420
       7058.5535       2.2652460
       7059.7534       2.2481480
       7060.9533       2.2720860
       7062.1532       2.2865040
       7063.3531       2.2698940
       7064.5530       2.2624440
       7065.7530       2.2855740
       7066.9529       2.2637060
       7068.1528       2.3103820
       7069.3527       2.2834080
       7070.5526       2.2479760
       7071.7525       2.2744900
       7072.9524       2.2429620
       7074.1523       2.2769460
       7075.3523       2.3137220
       7076.5522       2.2740760
       7077.7521       2.2784980
       7078.9520       2.2795260
       7080.1519       2.2707160
       7081.3519       2.3062660
       7082.5518       2.2822940
       7083.7517       2.2850020
       7084.9516       2.3004140
       7086.1515       2.2738620
       7087.3514       2.2373940
       7088.5513       2.2734540
       7089.7512       2.3041620
       7090.9511       2.2214540
       7092.1510       2.2060900
       7093.3509       2.2627580
       7094.5508       2.2393480
       7095.7507       2.2331680
       7096.9507       2.2170080
       7098.1506       2.1921960
       7099.3505       2.2102700
       7100.5504       2.2172120
       7101.7503       2.1946020
       7102.9502       2.2124220
       7104.1502       2.2031880
       7105.3501       2.1850320
       7106.5500       2.2034860
       7107.7499       2.2753040
       7108.9498       2.2852280
       7110.1497       2.3421960
       7111.3496       2.3219680
       7112.5496       2.3250040
       7113.7495       2.3037160
       7114.9494       2.2801380
       7116.1493       2.3102320
       7117.3492       2.2994760
       7118.5491       2.3087920
       7119.7490       2.3261320
       7120.9489       2.3570140
       7122.1488       2.3071960
       7123.3487       2.2825340
       7124.5486       2.3071340
       7125.7485       2.2542280
       7126.9485       2.2995380
       7128.1484       2.2980220
       7129.3483       2.2941900
       7130.5482       2.2937500
       7131.7481       2.2787780
       7132.9481       2.3071640
       7134.1480       2.3385340
       7135.3479       2.3563140
       7136.5478       2.3182140
       7137.7477       2.3114300
       7138.9476       2.3349040
       7140.1475       2.3401760
       7141.3474       2.3458680
       7142.5474       2.3633700
       7143.7473       2.4105140
       7144.9472       2.3924620
       7146.1471       2.3668260
       7147.3470       2.3428500
       7148.5469       2.3949960
       7149.7468       2.4098040
       7150.9467       2.3937580
       7152.1466       2.4116120
       7153.3465       2.4386680
       7154.5464       2.4226180
       7155.7463       2.4465860
       7156.9462       2.3564240
       7158.1462       2.4121580
       7159.3461       2.4541220
       7160.5460       2.4252700
       7161.7460       2.3796860
       7162.9459       2.3566900
       7164.1458       2.3801520
       7165.3457       2.3611980
       7166.5456       2.3180780
       7167.7455       2.3023360
       7168.9454       2.3027020
       7170.1453       2.2554840
       7171.3452       2.2172240
       7172.5451       2.1988560
       7173.7451       2.2076900
       7174.9450       2.1797860
       7176.1449       2.1772740
       7177.3448       2.2034160
       7178.5447       2.1878800
       7179.7446       2.1687840
       7180.9445       2.1952560
       7182.1444       2.1669540
       7183.3443       2.0981340
       7184.5442       2.0673740
       7185.7441       2.0475040
       7186.9440       2.0620200
       7188.1439       2.0994340
       7189.3439       2.1776380
       7190.5439       2.1578660
       7191.7438       2.1261260
       7192.9437       2.0915240
       7194.1436       2.1578920
       7195.3435       2.1795720
       7196.5434       2.1981400
       7197.7433       2.2135600
       7198.9432       2.1598480
       7200.1431       2.1072460
       7201.3430       2.1061880
       7202.5429       2.0872460
       7203.7428       2.1478000
       7204.9428       2.1532000
       7206.1427       2.2069520
       7207.3426       2.1970360
       7208.5425       2.2662780
       7209.7424       2.2996780
       7210.9423       2.3094720
       7212.1422       2.3010740
       7213.3421       2.3022400
       7214.5420       2.2993420
       7215.7419       2.2833400
       7216.9418       2.3053800
       7218.1417       2.2955580
       7219.3417       2.3009600
       7220.5417       2.3046460
       7221.7416       2.2903620
       7222.9415       2.3025960
       7224.1414       2.2875820
       7225.3413       2.2387020
       7226.5412       2.2281060
       7227.7411       2.2679140
       7228.9410       2.2716040
       7230.1409       2.2167020
       7231.3408       2.1376500
       7232.5407       2.0796360
       7233.7406       2.0682940
       7234.9405       2.0998640
       7236.1405       2.1369580
       7237.3404       2.2605440
       7238.5403       2.3667300
       7239.7402       2.2913480
       7240.9401       2.3617180
       7242.1400       2.3090620
       7243.3399       2.3145280
       7244.5398       2.2962000
       7245.7397       2.3300340
       7246.9396       2.3137940
       7248.1396       2.3070120
       7249.3395       2.2470440
       7250.5394       2.1693680
       7251.7394       2.1540820
       7252.9393       2.1899300
       7254.1392       2.1744240
       7255.3391       2.1514740
       7256.5390       2.1810740
       7257.7389       2.2049780
       7258.9388       2.2121700
       7260.1387       2.2364080
       7261.3386       2.1908860
       7262.5385       2.1360300
       7263.7384       2.1102940
       7264.9383       2.0772840
       7266.1382       2.0861340
       7267.3382       2.1329760
       7268.5381       2.1906000
       7269.7380       2.1897280
       7270.9379       2.1472160
       7272.1378       2.1717700
       7273.3377       2.1783260
       7274.5376       2.1997060
       7275.7375       2.2167760
       7276.9375       2.2463340
       7278.1374       2.1935980
       7279.3373       2.1405260
       7280.5372       2.1750180
       7281.7372       2.2629140
       7282.9371       2.3363260
       7284.1370       2.2993100
       7285.3369       2.2242420
       7286.5368       2.2552740
       7287.7367       2.2135840
       7288.9366       2.0986260
       7290.1365       2.1437140
       7291.3364       2.1114820
       7292.5363       2.1485240
       7293.7362       2.1987000
       7294.9361       2.2277020
       7296.1360       2.2267660
       7297.3360       2.2510780
       7298.5359       2.2487000
       7299.7358       2.2275320
       7300.9357       2.1943180
       7302.1356       2.1622460
       7303.3355       2.1653200
       7304.5354       2.1978400
       7305.7354       2.2108980
       7306.9353       2.1865740
       7308.1352       2.1990360
       7309.3351       2.1934360
       7310.5350       2.1966780
       7311.7349       2.1815140
       7312.9349       2.2268640
       7314.1348       2.2628240
       7315.3347       2.2897380
       7316.5346       2.2601180
       7317.7345       2.2530060
       7318.9344       2.2321680
       7320.1343       2.2088180
       7321.3342       2.2124940
       7322.5341       2.2386940
       7323.7340       2.2101120
       7324.9339       2.1875100
       7326.1338       2.2321160
       7327.3337       2.2722280
       7328.5337       2.2686020
       7329.7336       2.2555040
       7330.9335       2.2255220
       7332.1334       2.1966520
       7333.3333       2.1738040
       7334.5333       2.1755000
       7335.7332       2.2136540
       7336.9331       2.2099760
       7338.1330       2.2715460
       7339.3329       2.3247640
       7340.5328       2.3684040
       7341.7327       2.3751560
       7342.9326       2.3394740
       7344.1326       2.2898720
       7345.3325       2.2548920
       7346.5324       2.2576840
       7347.7323       2.2532600
       7348.9322       2.2289320
       7350.1321       2.2254280
       7351.3320       2.2426560
       7352.5319       2.2144420
       7353.7318       2.2278360
       7354.9317       2.2654380
       7356.1316       2.3045880
       7357.3315       2.3072700
       7358.5314       2.2913320
       7359.7314       2.3005320
       7360.9313       2.2506500
       7362.1312       2.2354480
       7363.3312       2.2710820
       7364.5311       2.2081900
       7365.7310       2.2514240
       7366.9309       2.2677820
       7368.1308       2.3180780
       7369.3307       2.3383580
       7370.5306       2.3240180
       7371.7305       2.2527200
       7372.9304       2.2382960
       7374.1303       2.2008140
       7375.3303       2.2189400
       7376.5302       2.2446520
       7377.7301       2.2159840
       7378.9300       2.1989960
       7380.1299       2.2342700
       7381.3298       2.2235040
       7382.5297       2.2532820
       7383.7296       2.2606600
       7384.9295       2.2606200
       7386.1294       2.2517140
       7387.3293       2.2189380
       7388.5292       2.2188220
       7389.7291       2.2308500
       7390.9291       2.2429520
       7392.1291       2.2745220
       7393.3290       2.2505260
       7394.5289       2.1993660
       7395.7288       2.1725440
       7396.9287       2.1656560
       7398.1286       2.1727860
       7399.3285       2.1947340
       7400.5284       2.2881920
       7401.7283       2.3109820
       7402.9282       2.2355420
       7404.1281       2.2254340
       7405.3280       2.1663460
       7406.5280       2.1782820
       7407.7279       2.1459740
       7408.9278       2.1921260
       7410.1277       2.2024980
       7411.3276       2.1905180
       7412.5275       2.2139100
       7413.7274       2.2124660
       7414.9273       2.1839280
       7416.1272       2.1913480
       7417.3271       2.2320720
       7418.5270       2.2344460
       7419.7269       2.1731080
       7420.9270       2.1705780
       7422.1269       2.1931600
       7423.3268       2.1895340
       7424.5267       2.1556900
       7425.7266       2.1543640
       7426.9265       2.1524960
       7428.1264       2.1772280
       7429.3263       2.1313240
       7430.5262       2.0880260
       7431.7261       2.1031060
       7432.9260       2.0970620
       7434.1259       2.0972600
       7435.3258       2.0802540
       7436.5258       2.0571020
       7437.7257       2.0421080
       7438.9256       2.0428260
       7440.1255       2.0778840
       7441.3254       2.0585320
       7442.5253       2.0258520
       7443.7252       1.9849106
       7444.9251       1.9654866
       7446.1250       1.9789312
       7447.3249       1.9686520
       7448.5249       2.0104260
       7449.7248       1.9373466
       7450.9247       1.9839094
       7452.1247       1.9420424
       7453.3246       1.9850286
       7454.5245       1.8553452
       7455.7244       1.9007876
       7456.9243       1.9076874
       7458.1242       1.8896004
       7459.3241       1.8952946
       7460.5240       1.9120868
       7461.7239       1.8644446
       7462.9238       1.8087506
       7464.1237       1.8228708
       7465.3236       1.7726990
       7466.5235       1.7074444
       7467.7235       1.6989236
       7468.9234       1.7019874
       7470.1233       1.6918534
       7471.3232       1.6994524
       7472.5231       1.6863286
       7473.7230       1.6664550
       7474.9229       1.6627282
       7476.1228       1.6530074
       7477.3228       1.6285340
       7478.5227       1.6026876
       7479.7226       1.6069024
       7480.9225       1.6111412
       7482.1224       1.6092216
       7483.3224       1.6082378
       7484.5223       1.6138022
       7485.7222       1.5808470
       7486.9221       1.5367658
       7488.1220       1.5448944
       7489.3219       1.5093892
       7490.5218       1.4859762
       7491.7217       1.4838036
       7492.9216       1.4837068
       7494.1215       1.4224314
       7495.3214       1.4213442
       7496.5213       1.4014118
       7497.7212       1.3703598
       7498.9212       1.3914468
       7500.1211       1.3423950
       7501.3210       1.3568590
       7502.5209       1.3435724
       7503.7208       1.3698632
       7504.9207       1.3531308
       7506.1207       1.3587404
       7507.3206       1.3461850
       7508.5205       1.3389800
       7509.7204       1.3430244
       7510.9203       1.3521086
       7512.1202       1.3344814
       7513.3201       1.3388840
       7514.5201       1.3383004
       7515.7200       1.3491296
       7516.9199       1.3444760
       7518.1198       1.3635328
       7519.3197       1.4054582
       7520.5196       1.4275532
       7521.7195       1.4498658
       7522.9194       1.4462172
       7524.1193       1.4413182
       7525.3192       1.4322858
       7526.5191       1.4115320
       7527.7190       1.4016514
       7528.9189       1.3647564
       7530.1189       1.3892730
       7531.3188       1.3771518
       7532.5187       1.3471242
       7533.7186       1.3302164
       7534.9186       1.3212764
       7536.1185       1.2544140
       7537.3184       1.3102124
       7538.5183       1.3232158
       7539.7182       1.3397940
       7540.9181       1.3624192
       7542.1180       1.3287424
       7543.3179       1.2985414
       7544.5178       1.3591108
       7545.7178       1.3465316
       7546.9177       1.3626278
       7548.1176       1.3840794
       7549.3175       1.3759928
       7550.5174       1.3672402
       7551.7173       1.3460816
       7552.9172       1.3689770
       7554.1171       1.3728678
       7555.3170       1.3889596
       7556.5169       1.3580704
       7557.7168       1.3323670
       7558.9167       1.3434064
       7560.1166       1.3702626
       7561.3166       1.3812894
       7562.5165       1.3671480
       7563.7165       1.3700166
       7564.9164       1.3920792
       7566.1163       1.3856096
       7567.3162       1.4050010
       7568.5161       1.4414650
       7569.7160       1.4740964
       7570.9159       1.4896254
       7572.1158       1.4952970
       7573.3157       1.5104108
       7574.5156       1.4876598
       7575.7156       1.4921948
       7576.9155       1.4625376
       7578.1154       1.4552696
       7579.3153       1.4317764
       7580.5152       1.4332548
       7581.7151       1.4392032
       7582.9150       1.3775866
       7584.1149       1.4317888
       7585.3148       1.4418068
       7586.5147       1.4149846
       7587.7146       1.4195616
       7588.9145       1.4316510
       7590.1144       1.3949154
       7591.3144       1.4095848
       7592.5144       1.4362930
       7593.7143       1.4368362
       7594.9142       1.4439820
       7596.1141       1.4829312
       7597.3140       1.5491118
       7598.5139       1.5855766
       7599.7138       1.5298092
       7600.9137       1.5389038
       7602.1136       1.5207960
       7603.3135       1.4664618
       7604.5134       1.4988238
       7605.7133       1.4714328
       7606.9133       1.4820736
       7608.1132       1.4748926
       7609.3131       1.4379950
       7610.5130       1.4417682
       7611.7129       1.4915716
       7612.9128       1.5480332
       7614.1127       1.5914826
       7615.3126       1.5964794
       7616.5125       1.5922024
       7617.7124       1.6133664
       7618.9123       1.5869442
       7620.1122       1.6120062
       7621.3122       1.5486530
       7622.5122       1.5524376
       7623.7121       1.5207082
       7624.9120       1.5301028
       7626.1119       1.6433478
       7627.3118       1.6405468
       7628.5117       1.6152434
       7629.7116       1.6308376
       7630.9115       1.5782784
       7632.1114       1.6417354
       7633.3113       1.5891002
       7634.5112       1.6217880
       7635.7111       1.5898622
       7636.9110       1.5693192
       7638.1110       1.6041394
       7639.3109       1.6372408
       7640.5108       1.6041240
       7641.7107       1.6227356
       7642.9106       1.6439682
       7644.1105       1.6035696
       7645.3104       1.6459976
       7646.5103       1.6744892
       7647.7102       1.7074590
       7648.9101       1.7212622
       7650.1101       1.7544160
       7651.3100       1.7824640
       7652.5099       1.8052880
       7653.7099       1.8326370
       7654.9098       1.8289084
       7656.1097       1.8503384
       7657.3096       1.8654392
       7658.5095       1.8871394
       7659.7094       1.9644414
       7660.9093       2.0061600
       7662.1092       2.0907920
       7663.3091       2.1647700
       7664.5090       2.1135880
       7665.7089       1.9972514
       7666.9088       1.9561662
       7668.1087       1.8723860
       7669.3087       1.8645920
       7670.5086       1.8643234
       7671.7085       1.9232008
       7672.9084       1.9007402
       7674.1083       1.8663216
       7675.3082       1.9754666
       7676.5081       1.9516540
       7677.7080       1.9385078
       7678.9080       1.9706878
       7680.1079       1.9588898
       7681.3078       1.9603072
       7682.5077       1.9879530
       7683.7076       1.9571058
       7684.9076       2.0050900
       7686.1075       1.9408218
       7687.3074       2.0646040
       7688.5073       2.0571140
       7689.7072       2.0917880
       7690.9071       2.0636060
       7692.1070       2.0487900
       7693.3069       2.0684320
       7694.5068       2.0760620
       7695.7067       2.1790880
       7696.9066       2.2029460
       7698.1065       2.1822120
       7699.3064       2.1959800
       7700.5064       2.1329040
       7701.7063       2.0919440
       7702.9062       2.0702680
       7704.1061       2.0714980
       7705.3060       2.1069080
       7706.5059       2.1517220
       7707.7059       2.1937960
       7708.9058       2.1983800
       7710.1057       2.2600380
       7711.3056       2.3503180
       7712.5055       2.4196500
       7713.7054       2.4196880
       7714.9054       2.4113780
       7716.1053       2.3635160
       7717.3052       2.3654940
       7718.5051       2.2975960
       7719.7050       2.2800660
       7720.9049       2.2235340
       7722.1048       2.2970380
       7723.3047       2.2693940
       7724.5046       2.2551840
       7725.7045       2.2905800
       7726.9044       2.2929720
       7728.1043       2.2431080
       7729.3042       2.2538580
       7730.5042       2.2750540
       7731.7041       2.2470100
       7732.9040       2.2736520
       7734.1039       2.2651380
       7735.3038       2.2845540
       7736.5038       2.3161620
       7737.7037       2.3107940
       7738.9036       2.3399280
       7740.1035       2.3509020
       7741.3034       2.3332440
       7742.5033       2.3068360
       7743.7032       2.3265060
       7744.9031       2.3274120
       7746.1031       2.3899880
       7747.3030       2.4906740
       7748.5029       2.5361260
       7749.7028       2.5923320
       7750.9027       2.6000700
       7752.1026       2.5276060
       7753.3025       2.4588440
       7754.5024       2.3889340
       7755.7023       2.3359660
       7756.9022       2.3585640
       7758.1021       2.3605760
       7759.3020       2.3958260
       7760.5019       2.4244940
       7761.7019       2.4250660
       7762.9018       2.4274760
       7764.1017       2.3951520
       7765.3017       2.4029660
       7766.5016       2.3346600
       7767.7015       2.3532960
       7768.9014       2.3591220
       7770.1013       2.4072620
       7771.3012       2.3498320
       7772.5011       2.3955660
       7773.7010       2.3903460
       7774.9009       2.3747260
       7776.1008       2.3372820
       7777.3008       2.3583000
       7778.5007       2.4412320
       7779.7006       2.4339160
       7780.9005       2.4605760
       7782.1004       2.3746340
       7783.3003       2.4263200
       7784.5002       2.4324400
       7785.7001       2.4302400
       7786.9000       2.4090260
       7788.0999       2.4151580
       7789.2998       2.4793240
       7790.4997       2.5354420
       7791.6996       2.5286880
       7792.8996       2.5737640
       7794.0996       2.6028920
       7795.2995       2.5250460
       7796.4994       2.5079280
       7797.6993       2.4841300
       7798.8992       2.4556100
       7800.0991       2.4715120
       7801.2990       2.4525100
       7802.4989       2.4472180
       7803.6988       2.4521840
       7804.8987       2.5069060
       7806.0986       2.5651900
       7807.2985       2.5414860
       7808.4985       2.5568740
       7809.6984       2.5699100
       7810.8983       2.5500020
       7812.0982       2.5209260
       7813.2981       2.5423640
       7814.4980       2.5102200
       7815.6979       2.5396520
       7816.8978       2.5281240
       7818.0977       2.5792120
       7819.2976       2.6395460
       7820.4975       2.6993580
       7821.6974       2.7422700
       7822.8974       2.6830300
       7824.0974       2.6075360
       7825.2973       2.5498360
       7826.4972       2.5114720
       7827.6971       2.5186420
       7828.8970       2.5157240
       7830.0969       2.4662120
       7831.2968       2.5552080
       7832.4967       2.5195700
       7833.6966       2.4830140
       7834.8965       2.4472200
       7836.0964       2.4784980
       7837.2963       2.4791920
       7838.4962       2.5368140
       7839.6962       2.4531500
       7840.8961       2.4896620
       7842.0960       2.4898220
       7843.2959       2.4600800
       7844.4958       2.4296660
       7845.6957       2.4483780
       7846.8956       2.4551560
       7848.0955       2.4665140
       7849.2954       2.4883960
       7850.4954       2.5672440
       7851.6953       2.6353900
       7852.8952       2.6729300
       7854.0951       2.6149980
       7855.2951       2.5771440
       7856.4950       2.5680700
       7857.6949       2.5381060
       7858.8948       2.5539940
       7860.0947       2.5340020
       7861.2946       2.4806940
       7862.4945       2.4051040
       7863.6944       2.4492000
       7864.8943       2.4768280
       7866.0942       2.4434680
       7867.2941       2.4920380
       7868.4940       2.4782440
       7869.6940       2.5456020
       7870.8939       2.5512000
       7872.0938       2.4869840
       7873.2937       2.4288640
       7874.4936       2.4283740
       7875.6935       2.4144120
       7876.8934       2.4212740
       7878.0933       2.4516900
       7879.2933       2.4047340
       7880.4932       2.4580300
       7881.6931       2.4028400
       7882.8930       2.3217540
       7884.0929       2.3138120
       7885.2929       2.3640880
       7886.4928       2.3423580
       7887.6927       2.3354560
       7888.8926       2.3667960
       7890.0925       2.3545500
       7891.2924       2.4021700
       7892.4923       2.3643400
       7893.6922       2.3091420
       7894.8921       2.3220340
       7896.0920       2.2598320
       7897.2919       2.2296500
       7898.4918       2.2681720
       7899.6917       2.2313680
       7900.8917       2.2151780
       7902.0916       2.2476040
       7903.2915       2.2395940
       7904.4914       2.2507260
       7905.6913       2.2704860
       7906.8912       2.2750560
       7908.0912       2.2864200
       7909.2911       2.3579000
       7910.4910       2.4674400
       7911.6909       2.5488980
       7912.8908       2.5942220
       7914.0907       2.5252900
       7915.2906       2.4752460
       7916.4906       2.4293980
       7917.6905       2.3474960
       7918.8904       2.3455420
       7920.0903       2.3681640
       7921.2902       2.4232200
       7922.4901       2.3259400
       7923.6900       2.3095280
       7924.8899       2.3303980
       7926.0898       2.2602340
       7927.2897       2.2825320
       7928.4896       2.3109940
       7929.6895       2.3084080
       7930.8894       2.2881800
       7932.0894       2.3158300
       7933.2893       2.2779000
       7934.4892       2.2076200
       7935.6891       2.1497760
       7936.8891       2.1642220
       7938.0890       2.2165960
       7939.2889       2.1741120
       7940.4888       2.1471600
       7941.6887       2.1901720
       7942.8886       2.1947680
       7944.0885       2.1831100
       7945.2884       2.2159300
       7946.4883       2.1593860
       7947.6883       2.1446880
       7948.8882       2.1897460
       7950.0881       2.2235400
       7951.2880       2.2026880
       7952.4879       2.1733000
       7953.6878       2.1866360
       7954.8877       2.1885380
       7956.0876       2.1653020
       7957.2875       2.1655680
       7958.4874       2.1456040
       7959.6873       2.1551940
       7960.8872       2.1784960
       7962.0871       2.1974420
       7963.2871       2.2570160
       7964.4870       2.2949760
       7965.6870       2.2404980
       7966.8869       2.1972200
       7968.0868       2.1610380
       7969.2867       2.0977460
       7970.4866       2.0913420
       7971.6865       2.0810540
       7972.8864       2.0411100
       7974.0863       2.0806660
       7975.2862       2.1048660
       7976.4861       2.1433840
       7977.6860       2.2179300
       7978.8860       2.2657220
       7980.0859       2.2174420
       7981.2858       2.1552140
       7982.4857       2.1317440
       7983.6856       2.0998560
       7984.8855       2.0697840
       7986.0854       2.0573740
       7987.2853       2.0110780
       7988.4852       2.0277440
       7989.6851       2.1442740
       7990.8850       2.1331780
       7992.0849       2.1639560
       7993.2848       2.2660660
       7994.4849       2.1929460
       7995.6848       2.1435000
       7996.8847       2.0320080
       7998.0846       2.0181640
       7999.2845       1.9791814
       8000.4844       2.0259440
       8001.6843       2.0356320
       8002.8842       2.0829320
       8004.0841       2.0714380
       8005.2840       2.0673800
       8006.4839       2.0578500
       8007.6838       1.9758004
       8008.8837       1.9483246
       8010.0837       1.9872642
       8011.2836       2.0342980
       8012.4835       2.0590840
       8013.6834       2.0440680
       8014.8833       2.0061580
       8016.0832       2.0090140
       8017.2831       1.9726508
       8018.4830       1.9329118
       8019.6829       1.9257726
       8020.8828       1.9302196
       8022.0827       1.9532492
       8023.2827       2.0078740
       8024.4827       2.0642800
       8025.6826       2.0893700
       8026.8825       2.0492820
       8028.0824       2.0121980
       8029.2823       1.9609774
       8030.4822       1.9229020
       8031.6821       1.9707936
       8032.8820       1.9823226
       8034.0819       1.9309650
       8035.2818       1.9110632
       8036.4817       1.9417194
       8037.6816       1.9269560
       8038.8815       1.9270936
       8040.0815       1.8684296
       8041.2814       1.9268490
       8042.4813       1.8687674
       8043.6812       1.8585990
       8044.8811       1.8721330
       8046.0810       1.8367862
       8047.2809       1.8061810
       8048.4808       1.8744982
       8049.6807       1.9234446
       8050.8806       1.8954766
       8052.0806       1.9234164
       8053.2805       1.8740726
       8054.4804       1.8603534
       8055.6804       1.8301822
       8056.8803       1.8735068
       8058.0802       1.9259870
       8059.2801       1.9224488
       8060.4800       1.9510094
       8061.6799       1.9331644
       8062.8798       2.0168020
       8064.0797       1.8955768
       8065.2796       1.8794914
       8066.4795       1.8681236
       8067.6794       1.8154106
       8068.8793       1.8223954
       8070.0792       1.8255948
       8071.2792       1.8457326
       8072.4791       1.8334562
       8073.6790       1.7889774
       8074.8789       1.7958002
       8076.0788       1.7976382
       8077.2787       1.8317166
       8078.4786       1.8012872
       8079.6785       1.7717644
       8080.8785       1.7993106
       8082.0784       1.7939300
       8083.2783       1.7567556
       8084.4782       1.7447230
       8085.6781       1.7428828
       8086.8781       1.7795616
       8088.0780       1.7851848
       8089.2779       1.7537014
       8090.4778       1.7976694
       8091.6777       1.8177640
       8092.8776       1.7903918
       8094.0775       1.7663298
       8095.2774       1.7853200
       8096.4773       1.7588064
       8097.6772       1.7369832
       8098.8771       1.7593338
       8100.0770       1.7846344
       8101.2769       1.7776502
       8102.4769       1.7585834
       8103.6768       1.8239560
       8104.8767       1.7848488
       8106.0766       1.7865150
       8107.2765       1.6860710
       8108.4764       1.6648894
       8109.6764       1.6935144
       8110.8763       1.6622520
       8112.0762       1.6538716
       8113.2761       1.6632628
       8114.4760       1.6757660
       8115.6759       1.6642772
       8116.8758       1.6612892
       8118.0758       1.7116682
       8119.2757       1.6498882
       8120.4756       1.5621110
       8121.6755       1.5615404
       8122.8754       1.5234408
       8124.0753       1.5300362
       8125.2752       1.5173428
       8126.4751       1.4844688
       8127.6750       1.4630698
       8128.8749       1.4504292
       8130.0748       1.4336792
       8131.2747       1.4156570
       8132.4746       1.4072140
       8133.6746       1.4123954
       8134.8745       1.3937140
       8136.0744       1.4117232
       8137.2743       1.4163256
       8138.4743       1.3729554
       8139.6742       1.3880624
       8140.8741       1.3347206
       8142.0740       1.3199146
       8143.2739       1.2979580
       8144.4738       1.2890682
       8145.6737       1.3052246
       8146.8736       1.3076520
       8148.0735       1.2612984
       8149.2735       1.2208314
       8150.4734       1.2240270
       8151.6733       1.2302634
       8152.8732       1.2349030
       8154.0731       1.2018624
       8155.2730       1.1874894
       8156.4729       1.2002428
       8157.6728       1.1888592
       8158.8727       1.1814346
       8160.0726       1.1510316
       8161.2725       1.1153636
       8162.4724       1.0654258
       8163.6724       1.0566802
       8164.8723       1.0782152
       8166.0722       1.0786582
       8167.2722       1.0900034
       8168.4721       1.0657660
       8169.6720       1.0697382
       8170.8719       1.0518396
       8172.0718       1.0757538
       8173.2717       1.0748356
       8174.4716       1.0503398
       8175.6715       1.0228056
       8176.8714      0.91915560
       8178.0713      0.94759800
       8179.2713      0.94738800
       8180.4712      0.93778700
       8181.6711      0.97311920
       8182.8710      0.93825940
       8184.0709      0.93864840
       8185.2708      0.94096060
       8186.4707      0.89965700
       8187.6706      0.90194100
       8188.8705      0.87975300
       8190.0704      0.88196900
       8191.2703      0.86655620
       8192.4702      0.84591320
       8193.6701      0.87483780
       8194.8701      0.83360560
       8196.0701      0.81364540
       8197.2700      0.80118440
       8198.4699      0.77736020
       8199.6698      0.78582160
       8200.8697      0.79735120
       8202.0696      0.81159000
       8203.2695      0.83804260
       8204.4694      0.84230700
       8205.6693      0.84587440
       8206.8692      0.83502220
       8208.0691      0.80609580
       8209.2690      0.80265500
       8210.4690      0.77501540
       8211.6689      0.79075120
       8212.8688      0.79065100
       8214.0687      0.75780220
       8215.2686      0.77267920
       8216.4685      0.74192100
       8217.6684      0.73465420
       8218.8683      0.76315860
       8220.0682      0.74527960
       8221.2681      0.76697380
       8222.4680      0.75593440
       8223.6679      0.73961860
       8224.8679      0.73142920
       8226.0679      0.66281500
       8227.2678      0.64349100
       8228.4677      0.63198040
       8229.6676      0.61134000
       8230.8675      0.63989100
       8232.0674      0.67596860
       8233.2673      0.69894120
       8234.4672      0.71272160
       8235.6671      0.71835800
       8236.8670      0.74076840
       8238.0669      0.75802960
       8239.2668      0.75701000
       8240.4667      0.74674500
       8241.6667      0.76478860
       8242.8666      0.74754420
       8244.0665      0.74877820
       8245.2664      0.78483280
       8246.4663      0.81136980
       8247.6662      0.80264140
       8248.8661      0.82075300
       8250.0660      0.78001480
       8251.2659      0.81797980
       8252.4659      0.83994420
       8253.6658      0.77619220
       8254.8657      0.84154180
       8256.0656      0.82328820
       8257.2656      0.80992120
       8258.4655      0.82667320
       8259.6654      0.83286680
       8260.8653      0.84371060
       8262.0652      0.82125660
       8263.2651      0.86304560
       8264.4650      0.86358380
       8265.6649      0.88762700
       8266.8648      0.85164860
       8268.0647      0.87223200
       8269.2646      0.91487700
       8270.4645      0.91966580
       8271.6644      0.86776940
       8272.8644      0.87080340
       8274.0643      0.89210320
       8275.2642      0.92551660
       8276.4641      0.97860880
       8277.6640       1.0041392
       8278.8639       1.0681332
       8280.0638       1.1335166
       8281.2638       1.1046554
       8282.4637       1.0845168
       8283.6636       1.0783980
       8284.8635       1.1075718
       8286.0634       1.1337610
       8287.2633       1.1287768
       8288.4633       1.1054294
       8289.6632       1.0903576
       8290.8631       1.0571970
       8292.0630       1.0035392
       8293.2629       1.0015626
       8294.4628       1.0768632
       8295.6627       1.1349048
       8296.8626       1.1435766
       8298.0625       1.1431154
       8299.2624       1.1555498
       8300.4623       1.1608158
       8301.6622       1.0953002
       8302.8621       1.0139642
       8304.0621      0.96813880
       8305.2620      0.94542040
       8306.4619      0.99527720
       8307.6618       1.0390670
       8308.8617       1.0599266
       8310.0617       1.1079144
       8311.2616       1.0972472
       8312.4615       1.0358644
       8313.6614       1.0446058
       8314.8613       1.0379018
       8316.0612       1.0002422
       8317.2611       1.0127070
       8318.4611       1.0360352
       8319.6610       1.0083280
       8320.8609       1.0027188
       8322.0608      0.98542440
       8323.2607       1.0241218
       8324.4606       1.0037906
       8325.6605       1.0138312
       8326.8604       1.0182802
       8328.0603       1.0346138
       8329.2602       1.0196520
       8330.4601      0.99433700
       8331.6600      0.99425920
       8332.8599      0.98387500
       8334.0599      0.96573980
       8335.2598       1.0003266
       8336.4597      0.99166940
       8337.6596       1.0055364
       8338.8596      0.99971800
       8340.0595       1.0957632
       8341.2594       1.1479784
       8342.4593       1.3619032
       8343.6592       1.4495880
       8344.8591       1.4721016
       8346.0590       1.3707864
       8347.2589       1.1799748
       8348.4588       1.0569704
       8349.6588       1.0696142
       8350.8587       1.1340928
       8352.0586       1.1559892
       8353.2585       1.1573706
       8354.4584       1.0954918
       8355.6583       1.0379968
       8356.8582       1.0510736
       8358.0581      0.98568000
       8359.2580       1.0045988
       8360.4579       1.0078654
       8361.6578       1.0814428
       8362.8577       1.1090944
       8364.0576       1.0879340
       8365.2576       1.0826662
       8366.4575       1.0846636
       8367.6575       1.1502516
       8368.8574       1.1373744
       8370.0573       1.0847312
       8371.2572       1.0532036
       8372.4571       1.0757978
       8373.6570       1.0871322
       8374.8569       1.0915628
       8376.0568       1.1095802
       8377.2567       1.1571078
       8378.4566       1.1615084
       8379.6565       1.2182678
       8380.8565       1.2649642
       8382.0564       1.2685880
       8383.2563       1.3214780
       8384.4562       1.2838254
       8385.6561       1.2521212
       8386.8560       1.2543526
       8388.0559       1.2135094
       8389.2558       1.2084864
       8390.4557       1.2504244
       8391.6556       1.2708114
       8392.8555       1.2879962
       8394.0554       1.3072122
       8395.2553       1.3493196
       8396.4554       1.4436256
       8397.6553       1.5789782
       8398.8552       1.6293306
       8400.0551       1.5671728
       8401.2550       1.4702308
       8402.4549       1.4139242
       8403.6548       1.3555530
       8404.8547       1.3505220
       8406.0546       1.3134670
       8407.2545       1.3174612
       8408.4544       1.3394782
       8409.6543       1.3454292
       8410.8542       1.3791274
       8412.0542       1.4081488
       8413.2541       1.3983534
       8414.4540       1.4818008
       8415.6539       1.5401092
       8416.8538       1.5135708
       8418.0537       1.4540360
       8419.2536       1.4376706
       8420.4535       1.4607654
       8421.6534       1.4891418
       8422.8533       1.4740364
       8424.0532       1.5617506
       8425.2532       1.6114798
       8426.4531       1.6914562
       8427.6531       1.7962410
       8428.8530       1.9115752
       8430.0529       1.9289070
       8431.2528       1.9309328
       8432.4527       1.7868218
       8433.6526       1.6178472
       8434.8525       1.5360342
       8436.0524       1.5434652
       8437.2523       1.5348516
       8438.4522       1.5307304
       8439.6521       1.5834500
       8440.8520       1.5568528
       8442.0519       1.5946332
       8443.2519       1.6222902
       8444.4518       1.5653392
       8445.6517       1.5669132
       8446.8516       1.6002260
       8448.0515       1.6392742
       8449.2514       1.6896924
       8450.4513       1.7556938
       8451.6512       1.7771450
       8452.8511       1.8696512
       8454.0511       1.8393032
       8455.2510       1.7676596
       8456.4509       1.7890200
       8457.6508       1.7230166
       8458.8508       1.7469554
       8460.0507       1.8114838
       8461.2506       1.8613214
       8462.4505       1.9295846
       8463.6504       1.9796892
       8464.8503       2.0247660
       8466.0502       1.9872630
       8467.2501       1.9778218
       8468.4500       1.9165394
       8469.6499       1.7943592
       8470.8498       1.7685006
       8472.0497       1.7940110
       8473.2497       1.8303892
       8474.4496       1.8093822
       8475.6495       1.8110688
       8476.8494       1.8544696
       8478.0493       1.8363000
       8479.2492       1.8567566
       8480.4491       1.8660106
       8481.6490       1.8778546
       8482.8490       1.8503070
       8484.0489       1.8602260
       8485.2488       1.8986640
       8486.4487       1.8981754
       8487.6486       1.9156284
       8488.8486       1.9334282
       8490.0485       1.9046192
       8491.2484       1.9549186
       8492.4483       2.0618140
       8493.6482       2.0438840
       8494.8481       1.9739754
       8496.0480       1.9661754
       8497.2479       1.9849452
       8498.4478       1.9522124
       8499.6477       1.9476100
       8500.8476       1.9882688
       8502.0475       2.0209060
       8503.2474       2.0955620
       8504.4474       2.2101280
       8505.6473       2.1415960
       8506.8472       2.0480540
       8508.0471       1.9863222
       8509.2470       1.9398632
       8510.4469       1.9424426
       8511.6469       1.9147746
       8512.8468       1.8852530
       8514.0467       1.9134550
       8515.2466       1.9289752
       8516.4465       1.8946900
       8517.6464       1.8793924
       8518.8463       1.9106230
       8520.0463       1.8872718
       8521.2462       1.8782182
       8522.4461       1.9000814
       8523.6460       1.9195496
       8524.8459       1.9247276
       8526.0458       1.9146154
       8527.2457       1.9565430
       8528.4456       1.9547032
       8529.6455       1.9279070
       8530.8454       1.9388280
       8532.0453       1.9825000
       8533.2452       1.9781110
       8534.4451       2.0383920
       8535.6451       1.9666852
       8536.8450       2.0262920
       8538.0449       2.1075020
       8539.2448       2.0158900
       8540.4448       1.9685198
       8541.6447       1.9915982
       8542.8446       2.0019780
       8544.0445       2.0190660
       8545.2444       2.0243860
       8546.4443       1.9791788
       8547.6442       2.0278760
       8548.8441       2.0700480
       8550.0440       2.0540920
       8551.2440       1.9719636
       8552.4439       1.9791626
       8553.6438       1.9600724
       8554.8437       1.9294476
       8556.0436       1.9843902
       8557.2435       1.9279480
       8558.4434       1.9272076
       8559.6433       1.8912762
       8560.8432       1.8953180
       8562.0431       1.9529564
       8563.2430       1.9524046
       8564.4429       1.9244104
       8565.6428       1.9555670
       8566.8428       1.9434548
       8568.0427       1.9783542
       8569.2427       1.9693124
       8570.4426       1.9750494
       8571.6425       1.9972618
       8572.8424       2.0509560
       8574.0423       2.1075800
       8575.2422       1.9567806
       8576.4421       2.0152420
       8577.6420       2.0313560
       8578.8419       2.0196840
       8580.0418       2.0862620
       8581.2417       1.9999642
       8582.4417       2.0282700
       8583.6416       2.0928640
       8584.8415       2.0734200
       8586.0414       2.0345940
       8587.2413       2.1356340
       8588.4412       2.0205420
       8589.6411       2.0247460
       8590.8410       2.0199060
       8592.0409       2.0164480
       8593.2408       2.0329580
       8594.4407       2.0340300
       8595.6406       2.0122840
       8596.8405       2.0239680
       8598.0406       2.0785620
       8599.2405       2.0744680
       8600.4404       1.9804200
       8601.6403       1.9862184
       8602.8402       2.0321040
       8604.0401       1.9705244
       8605.2400       1.9517444
       8606.4399       1.9799526
       8607.6398       2.0459280
       8608.8397       1.9521746
       8610.0396       1.9689124
       8611.2395       1.9883594
       8612.4395       2.0200220
       8613.6394       2.0329540
       8614.8393       2.0651900
       8616.0392       2.0327560
       8617.2391       2.0744120
       8618.4390       2.1524420
       8619.6389       2.0828740
       8620.8388       2.0963380
       8622.0387       2.1075540
       8623.2386       2.1247940
       8624.4385       2.1194240
       8625.6384       2.1382020
       8626.8384       2.1506240
       8628.0384       2.1572720
       8629.2383       2.1566760
       8630.4382       2.1834220
       8631.6381       2.1305600
       8632.8380       2.1981140
       8634.0379       2.1855240
       8635.2378       2.1506220
       8636.4377       2.1687420
       8637.6376       2.1307800
       8638.8375       2.1219320
       8640.0374       2.1304600
       8641.2373       2.1477180
       8642.4372       2.1254620
       8643.6372       2.1054320
       8644.8371       2.1281120
       8646.0370       2.1006440
       8647.2369       2.1019020
       8648.4368       2.1568300
       8649.6367       2.1688980
       8650.8366       2.1668640
       8652.0365       2.1694320
       8653.2364       2.1688100
       8654.4363       2.1161920
       8655.6363       2.1477240
       8656.8362       2.1962480
       8658.0361       2.1560680
       8659.2361       2.1496780
       8660.4360       2.1252280
       8661.6359       2.1089260
       8662.8358       2.0928840
       8664.0357       2.1137040
       8665.2356       2.1511960
       8666.4355       2.1012720
       8667.6354       2.0821080
       8668.8353       2.0762780
       8670.0352       2.0445280
       8671.2351       2.0561940
       8672.4350       2.0034640
       8673.6349       1.9744360
       8674.8349       2.0033300
       8676.0348       2.0270300
       8677.2347       2.0043620
       8678.4346       1.9542392
       8679.6345       1.9329082
       8680.8344       1.9362260
       8682.0343       1.9247526
       8683.2343       1.9243560
       8684.4342       1.9356604
       8685.6341       1.9413918
       8686.8340       1.9193612
       8688.0339       1.9087816
       8689.2338       1.9277724
       8690.4338       1.8972140
       8691.6337       1.8674418
       8692.8336       1.8680240
       8694.0335       1.8981422
       8695.2334       1.9283934
       8696.4333       1.9354666
       8697.6332       1.9302632
       8698.8331       1.8923936
       8700.0330       1.9048056
       8701.2329       1.9532362
       8702.4328       1.9356414
       8703.6327       1.9051534
       8704.8326       1.9008312
       8706.0326       1.8968138
       8707.2325       1.8837266
       8708.4324       1.8595586
       8709.6323       1.8688400
       8710.8322       1.8450754
       8712.0322       1.8546548
       8713.2321       1.8595318
       8714.4320       1.8152238
       8715.6319       1.7900096
       8716.8318       1.8311414
       8718.0317       1.8362694
       8719.2316       1.8061736
       8720.4315       1.8298728
       8721.6315       1.7919264
       8722.8314       1.7708588
       8724.0313       1.7864486
       8725.2312       1.7624994
       8726.4311       1.7509220
       8727.6310       1.7260226
       8728.8309       1.7218018
       8730.0308       1.6931064
       8731.2307       1.6661492
       8732.4306       1.7130786
       8733.6305       1.6700136
       8734.8304       1.6171412
       8736.0303       1.6291118
       8737.2303       1.6372596
       8738.4302       1.6067530
       8739.6301       1.5739276
       8740.8301       1.5681204
       8742.0300       1.5910616
       8743.2299       1.5638486
       8744.4298       1.5082010
       8745.6297       1.5068954
       8746.8296       1.5289054
       8748.0295       1.5025474
       8749.2294       1.4490828
       8750.4293       1.4377574
       8751.6292       1.4960170
       8752.8292       1.5095860
       8754.0291       1.5192770
       8755.2290       1.5167708
       8756.4289       1.5304796
       8757.6288       1.5942522
       8758.8287       1.6443412
       8760.0286       1.7530202
       8761.2285       1.7309992
       8762.4284       1.7052804
       8763.6283       1.6631150
       8764.8282       1.7167482
       8766.0281       1.7187362
       8767.2281       1.7618958
       8768.4280       1.7191886
       8769.6280       1.5712430
       8770.8279       1.4974266
       8772.0278       1.4609844
       8773.2277       1.4685984
       8774.4276       1.5644244
       8775.6275       1.6257732
       8776.8274       1.6744950
       8778.0273       1.6855376
       8779.2272       1.5622794
       8780.4271       1.4576858
       8781.6270       1.3719768
       8782.8270       1.3333574
       8784.0269       1.3155292
       8785.2268       1.2727068
       8786.4267       1.2581716
       8787.6266       1.3541572
       8788.8265       1.3586520
       8790.0264       1.3403770
       8791.2263       1.3084438
       8792.4262       1.3072204
       8793.6261       1.3262638
       8794.8260       1.2811142
       8796.0259       1.2543754
       8797.2258       1.2560640
       8798.4259       1.2896228
       8799.6258       1.2819358
       8800.8257       1.2656604
       8802.0256       1.2607788
       8803.2255       1.2849222
       8804.4254       1.2806980
       8805.6253       1.2594304
       8806.8252       1.2870084
       8808.0251       1.3203440
       8809.2250       1.2767454
       8810.4249       1.2870126
       8811.6248       1.3265076
       8812.8247       1.3167764
       8814.0247       1.3060356
       8815.2246       1.3114724
       8816.4245       1.3265208
       8817.6244       1.3294262
       8818.8243       1.3398246
       8820.0242       1.3547078
       8821.2241       1.3833558
       8822.4240       1.4631746
       8823.6239       1.6569734
       8824.8238       1.8288952
       8826.0237       2.0273640
       8827.2237       2.0230480
       8828.4236       1.9196568
       8829.6236       1.7035610
       8830.8235       1.4819978
       8832.0234       1.4636098
       8833.2233       1.5103792
       8834.4232       1.5200248
       8835.6231       1.5616132
       8836.8230       1.5789518
       8838.0229       1.5728292
       8839.2228       1.4479730
       8840.4227       1.3398738
       8841.6226       1.3411228
       8842.8225       1.3579030
       8844.0224       1.3413704
       8845.2224       1.3272684
       8846.4223       1.3061300
       8847.6222       1.3585082
       8848.8221       1.3774452
       8850.0220       1.3873902
       8851.2219       1.3052868
       8852.4218       1.3458906
       8853.6217       1.3259634
       8854.8216       1.2661642
       8856.0216       1.2477414
       8857.2215       1.3170682
       8858.4214       1.2939462
       8859.6213       1.2802292
       8860.8213       1.2871108
       8862.0212       1.3491082
       8863.2211       1.3627838
       8864.4210       1.3714670
       8865.6209       1.4188336
       8866.8208       1.5049494
       8868.0207       1.5323794
       8869.2206       1.5232750
       8870.4205       1.4098564
       8871.6204       1.3285850
       8872.8203       1.2669378
       8874.0202       1.2799618
       8875.2201       1.2900116
       8876.4201       1.3082204
       8877.6200       1.3096878
       8878.8199       1.2946266
       8880.0198       1.3103862
       8881.2197       1.3874792
       8882.4196       1.4352620
       8883.6195       1.5282248
       8884.8195       1.6555960
       8886.0194       1.7258114
       8887.2193       1.5958106
       8888.4192       1.4415464
       8889.6191       1.3139370
       8890.8190       1.2359486
       8892.0190       1.2233656
       8893.2189       1.2006060
       8894.4188       1.2218520
       8895.6187       1.2100264
       8896.8186       1.1719918
       8898.0185       1.1920542
       8899.2184       1.2158464
       8900.4183       1.2801130
       8901.6182       1.3742484
       8902.8181       1.3622296
       8904.0180       1.3438048
       8905.2179       1.3142242
       8906.4178       1.2258706
       8907.6178       1.1950078
       8908.8177       1.2118144
       8910.0176       1.1982972
       8911.2175       1.2080310
       8912.4174       1.2133530
       8913.6174       1.2567472
       8914.8173       1.2972370
       8916.0172       1.3648700
       8917.2171       1.5401832
       8918.4170       1.6849690
       8919.6169       1.7073026
       8920.8168       1.5812240
       8922.0168       1.4219368
       8923.2167       1.2391174
       8924.4166       1.1865336
       8925.6165       1.1427556
       8926.8164       1.1068934
       8928.0163       1.1060898
       8929.2162       1.1085966
       8930.4161       1.1015284
       8931.6160       1.0702078
       8932.8159       1.0720854
       8934.0158       1.0799088
       8935.2157       1.1115836
       8936.4156       1.1039976
       8937.6156       1.0636946
       8938.8155       1.0596112
       8940.0154       1.1100194
       8941.2153       1.1946558
       8942.4153       1.2233812
       8943.6152       1.1829312
       8944.8151       1.1220314
       8946.0150       1.0468678
       8947.2149       1.0242396
       8948.4148      0.99149480
       8949.6147      0.94951680
       8950.8146      0.96460900
       8952.0145      0.96416440
       8953.2145      0.97744840
       8954.4144       1.0513318
       8955.6143       1.2018688
       8956.8142       1.3442212
       8958.0141       1.3434368
       8959.2140       1.2742414
       8960.4139       1.1825692
       8961.6138       1.0282322
       8962.8137      0.87827220
       8964.0136      0.82659400
       8965.2135      0.88089800
       8966.4134      0.91767700
       8967.6133      0.94912660
       8968.8133      0.97127880
       8970.0132      0.95300660
       8971.2132      0.93104160
       8972.4131      0.92816380
       8973.6130      0.92235060
       8974.8129      0.96541040
       8976.0128       1.0437370
       8977.2127       1.0186280
       8978.4126      0.99912660
       8979.6125       1.0027282
       8980.8124      0.94890040
       8982.0123      0.96903060
       8983.2122       1.0007408
       8984.4122      0.99490580
       8985.6121      0.99007960
       8986.8120      0.98386160
       8988.0119      0.96435540
       8989.2118      0.92337320
       8990.4117      0.88841140
       8991.6116      0.91783200
       8992.8115      0.96079860
       8994.0114      0.98501600
       8995.2113       1.1124694
       8996.4112       1.1130706
       8997.6111       1.2101826
       8998.8110       1.2251256
       9000.0111       1.2320260
       9001.2110       1.1870202
       9002.4109       1.2320870
       9003.6108       1.2134662
       9004.8107       1.1005680
       9006.0106       1.0736470
       9007.2105       1.0196748
       9008.4104       1.0407716
       9009.6103       1.0553558
       9010.8102       1.0830564
       9012.0101       1.0987330
       9013.2100       1.0183442
       9014.4099       1.0338384
       9015.6099      0.99707220
       9016.8098      0.97951140
       9018.0097       1.0357200
       9019.2096       1.0518708
       9020.4095       1.0828176
       9021.6094       1.0860206
       9022.8093       1.0738662
       9024.0092       1.0530224
       9025.2091       1.0789134
       9026.4090       1.0294040
       9027.6089       1.0835024
       9028.8089       1.0955498
       9030.0088       1.0862656
       9031.2088       1.1936774
       9032.4087       1.1503756
       9033.6086       1.1765946
       9034.8085       1.2229902
       9036.0084       1.2073604
       9037.2083       1.2843708
       9038.4082       1.2658182
       9039.6081       1.2741982
       9040.8080       1.2376816
       9042.0079       1.1025880
       9043.2078       1.1884000
       9044.4077       1.1907568
       9045.6076       1.2008190
       9046.8076       1.2497720
       9048.0075       1.2354874
       9049.2074       1.3090846
       9050.4073       1.2543014
       9051.6072       1.2298214
       9052.8071       1.1620770
       9054.0070       1.1930126
       9055.2069       1.2054394
       9056.4068       1.2150476
       9057.6068       1.1939010
       9058.8067       1.1665040
       9060.0066       1.1093904
       9061.2066       1.1547720
       9062.4065       1.1572262
       9063.6064       1.1946038
       9064.8063       1.2078364
       9066.0062       1.1778984
       9067.2061       1.1565698
       9068.4060       1.1407770
       9069.6059       1.1225676
       9070.8058       1.0956546
       9072.0057       1.0707062
       9073.2056       1.0557744
       9074.4055       1.1609804
       9075.6054       1.2174342
       9076.8054       1.1869380
       9078.0053       1.2012946
       9079.2052       1.1170794
       9080.4051       1.1334580
       9081.6050       1.1664118
       9082.8049       1.1669210
       9084.0048       1.2201476
       9085.2048       1.1973438
       9086.4047       1.2255394
       9087.6046       1.1833288
       9088.8045       1.2461522
       9090.0044       1.3082222
       9091.2043       1.3420748
       9092.4043       1.3366780
       9093.6042       1.3364480
       9094.8041       1.3492906
       9096.0040       1.3080008
       9097.2039       1.2807364
       9098.4038       1.3017048
       9099.6037       1.3013154
       9100.8036       1.3402250
       9102.0035       1.3725536
       9103.2034       1.3908550
       9104.4033       1.3869310
       9105.6032       1.3523824
       9106.8031       1.3377404
       9108.0031       1.3334098
       9109.2030       1.4006534
       9110.4029       1.4461506
       9111.6028       1.4548846
       9112.8027       1.5025320
       9114.0027       1.4980942
       9115.2026       1.4814216
       9116.4025       1.4258890
       9117.6024       1.3625448
       9118.8023       1.3429836
       9120.0022       1.3825390
       9121.2021       1.4433136
       9122.4020       1.5150686
       9123.6020       1.5071942
       9124.8019       1.4711016
       9126.0018       1.4742644
       9127.2017       1.4500892
       9128.4016       1.4362232
       9129.6015       1.3761840
       9130.8014       1.3457756
       9132.0013       1.3162836
       9133.2012       1.2869624
       9134.4011       1.3226620
       9135.6010       1.3220340
       9136.8009       1.3516498
       9138.0008       1.3310148
       9139.2008       1.4300490
       9140.4007       1.4398314
       9141.6006       1.5059664
       9142.8006       1.5267066
       9144.0005       1.4707138
       9145.2004       1.4725254
       9146.4003       1.5126794
       9147.6002       1.5152102
       9148.8001       1.4114552
       9150.0000       1.3977050
