Units are: observed wavelength (Ang), observed flux (10^-15 erg/s/cm^2/Ang)
       3478.0000      0.33853010
       3479.4700      0.33852840
       3480.9400     0.091598800
       3482.4100     -0.18685100
       3483.8800      0.27726220
       3485.3500      0.72870000
       3486.8200       2.1378770
       3488.2900      0.21644570
       3489.7600      0.12452710
       3491.2300      0.38933730
       3492.7000      0.26891850
       3494.1700      0.52411800
       3495.6400      0.57980900
       3497.1100     -0.17739140
       3498.5800      0.25704260
       3500.0500      0.68155900
       3501.5200      0.33476390
       3502.9900      0.39634380
       3504.4600      0.27523440
       3505.9300    -0.017334980
       3507.4000     0.082559220
       3508.8700     0.080344780
       3510.3400      0.30196740
       3511.8100      0.22976520
       3513.2800    -0.027894850
       3514.7500    -0.010589030
       3516.2200      0.28492750
       3517.6900      0.35101950
       3519.1600      0.18373960
       3520.6300     -0.24378840
       3522.1000      0.20555110
       3523.5700      0.33712870
       3525.0400      0.26570590
       3526.5100       1.0955950
       3527.9800      0.58194210
       3529.4500      0.24369860
       3530.9200      0.91602490
       3532.3900      0.17968200
       3533.8600     -0.15705620
       3535.3300      0.18238430
       3536.8000     0.098347950
       3538.2700      0.22621530
       3539.7400      0.30874370
       3541.2100      0.11395510
       3542.6800    -0.073563940
       3544.1500     -0.14692840
       3545.6200     0.066233520
       3547.0900      0.29487830
       3548.5600      0.15919710
       3550.0300      0.42464230
       3551.5000      0.44937710
       3552.9700    -0.073391800
       3554.4400     -0.11440900
       3555.9100    -0.036234830
       3557.3800      0.17340960
       3558.8500      0.37921840
       3560.3200      0.23499040
       3561.7900      0.15305710
       3563.2600     0.044527690
       3564.7300     0.023910160
       3566.2000      0.32434420
       3567.6700      0.43715860
       3569.1400     0.043277110
       3570.6100   -0.0058161590
       3572.0800    0.0047848270
       3573.5500      0.34731880
       3575.0200      0.16244670
       3576.4900   -0.0085885420
       3577.9600     0.093697280
       3579.4300      0.22969620
       3580.9000      0.55560230
       3582.3700      0.30894990
       3583.8400     0.022215780
       3585.3100      0.14476090
       3586.7800      0.24548810
       3588.2500     0.013049200
       3589.7200     0.010618420
       3591.1900      0.21392780
       3592.6600     0.081347410
       3594.1300     0.023962300
       3595.6000     0.061506470
       3597.0700     0.065258080
       3598.5399     -0.11182490
       3600.0100      0.39289930
       3601.4800      0.40428740
       3602.9500      0.25614320
       3604.4200      0.68947400
       3605.8900      0.73342560
       3607.3600      0.59649080
       3608.8300      0.31468200
       3610.3000      0.15793880
       3611.7700      0.47405200
       3613.2400      0.24293490
       3614.7100     0.071247910
       3616.1800      0.12873120
       3617.6500      0.23726390
       3619.1200    -0.017887270
       3620.5900      0.58197440
       3622.0600      0.67214720
       3623.5300      0.12715460
       3625.0000      0.27867800
       3626.4700      0.36792120
       3627.9400      0.28789760
       3629.4100      0.14358730
       3630.8800      0.25169240
       3632.3500      0.19284510
       3633.8200      0.20832040
       3635.2900      0.19631600
       3636.7600      0.17950210
       3638.2300      0.41014360
       3639.7000      0.12811230
       3641.1700      0.26357000
       3642.6400      0.40142260
       3644.1100     0.021356350
       3645.5800     0.064638240
       3647.0500     0.074956100
       3648.5200    -0.091689640
       3649.9900      0.35239290
       3651.4600     0.055366940
       3652.9300    0.0089644960
       3654.4000      0.25617220
       3655.8700     0.051837270
       3657.3400     0.065268670
       3658.8100      0.14445610
       3660.2800      0.21773070
       3661.7500      0.15776430
       3663.2200    -0.092930870
       3664.6900      0.10862200
       3666.1600      0.21646990
       3667.6300      0.10535740
       3669.1000      0.30993560
       3670.5700      0.36251060
       3672.0400      0.24690880
       3673.5100      0.22635490
       3674.9800      0.53774180
       3676.4500      0.93145750
       3677.9200      0.62429740
       3679.3900      0.19751850
       3680.8600      0.14582850
       3682.3300      0.33189560
       3683.8000      0.23101850
       3685.2700      0.32794590
       3686.7400     0.099285450
       3688.2100      0.20408940
       3689.6800      0.38858130
       3691.1500      0.36839070
       3692.6200      0.56197910
       3694.0900      0.34891820
       3695.5600     0.046521980
       3697.0300      0.24069370
       3698.5000      0.33325560
       3699.9700      0.18202260
       3701.4400      0.16207750
       3702.9100      0.45251270
       3704.3800      0.29206890
       3705.8500      0.38327490
       3707.3200      0.85688590
       3708.7900      0.41154510
       3710.2600     0.072174860
       3711.7300     0.082913550
       3713.2000      0.30255250
       3714.6700      0.23544580
       3716.1400      0.14236670
       3717.6100      0.12239820
       3719.0800      0.44902360
       3720.5500      0.34004260
       3722.0200      0.37465440
       3723.4900      0.17840510
       3724.9600      0.28532290
       3726.4300      0.17410270
       3727.9000      0.13192990
       3729.3700      0.24871540
       3730.8400      0.37603190
       3732.3100      0.53482400
       3733.7800      0.10454930
       3735.2500      0.15744930
       3736.7200      0.46477350
       3738.1900      0.56496750
       3739.6600      0.33689240
       3741.1300      0.35829040
       3742.6000      0.34329640
       3744.0700      0.36953570
       3745.5400      0.41811480
       3747.0100      0.37916090
       3748.4800      0.30039690
       3749.9500      0.27101130
       3751.4200      0.13955640
       3752.8900     0.043897570
       3754.3600     0.058351500
       3755.8300      0.21174340
       3757.3000      0.43002770
       3758.7700      0.47617420
       3760.2400      0.46257050
       3761.7100      0.37882520
       3763.1800      0.26459150
       3764.6500      0.65281240
       3766.1200      0.65674520
       3767.5900      0.35543200
       3769.0600      0.33675550
       3770.5300      0.27281180
       3772.0000     0.049767250
       3773.4700      0.48978350
       3774.9400      0.35554850
       3776.4100      0.43928590
       3777.8800      0.28967870
       3779.3500     0.070283710
       3780.8200      0.28504510
       3782.2900      0.14529750
       3783.7600      0.15567730
       3785.2300      0.15207840
       3786.7000     0.098952320
       3788.1700      0.15713790
       3789.6400      0.22336050
       3791.1100      0.15461630
       3792.5800      0.25579680
       3794.0500      0.23800460
       3795.5200      0.19137520
       3796.9900      0.23569380
       3798.4600      0.34616680
       3799.9300      0.30605770
       3801.4000      0.45434700
       3802.8700      0.36429500
       3804.3400      0.20032690
       3805.8100      0.20603160
       3807.2800      0.29737610
       3808.7500      0.27391150
       3810.2200      0.25077080
       3811.6900      0.21717290
       3813.1600      0.18372630
       3814.6300      0.15251620
       3816.1000      0.14850350
       3817.5700      0.14028460
       3819.0400      0.16680940
       3820.5100      0.22811490
       3821.9800      0.11781230
       3823.4500      0.11697580
       3824.9200      0.25961290
       3826.3900      0.21731280
       3827.8600     0.083300170
       3829.3300      0.22757240
       3830.8000      0.20292490
       3832.2700      0.19879390
       3833.7400      0.11446740
       3835.2100      0.20398870
       3836.6800      0.13829570
       3838.1500      0.23262100
       3839.6200      0.38616630
       3841.0900      0.23683690
       3842.5600      0.32613980
       3844.0300      0.38366110
       3845.5000      0.10517830
       3846.9700      0.20036510
       3848.4400      0.17662350
       3849.9100      0.19349140
       3851.3800      0.31206630
       3852.8500      0.16431870
       3854.3200      0.23836280
       3855.7900      0.25543250
       3857.2600      0.14753200
       3858.7300      0.20314800
       3860.2000      0.19418470
       3861.6700      0.23318750
       3863.1400      0.32211550
       3864.6100      0.24270800
       3866.0800      0.21377620
       3867.5500      0.18699880
       3869.0200      0.30283560
       3870.4900      0.34438280
       3871.9600      0.25681340
       3873.4300      0.32625980
       3874.9000      0.43450810
       3876.3700      0.51726930
       3877.8400      0.37454230
       3879.3100      0.27167290
       3880.7800      0.35564560
       3882.2500      0.37242720
       3883.7200      0.32399250
       3885.1900      0.50559160
       3886.6600      0.46969420
       3888.1300      0.42680260
       3889.6000      0.39183820
       3891.0700      0.30176690
       3892.5400      0.39802110
       3894.0100      0.51446990
       3895.4800      0.66286410
       3896.9500      0.41937290
       3898.4200      0.58698460
       3899.8900      0.74010540
       3901.3600      0.47866370
       3902.8300      0.49455240
       3904.3000      0.33764710
       3905.7700      0.42005340
       3907.2400      0.72418050
       3908.7100      0.65465690
       3910.1800      0.45990390
       3911.6499      0.46812070
       3913.1200      0.57395830
       3914.5900      0.64599250
       3916.0600      0.54177800
       3917.5300      0.65573780
       3919.0000      0.45916160
       3920.4700      0.60576680
       3921.9400      0.63284280
       3923.4100      0.54775830
       3924.8800      0.58674560
       3926.3500      0.74722350
       3927.8200      0.63162480
       3929.2900      0.74363950
       3930.7600      0.58165330
       3932.2300      0.58527130
       3933.7000      0.57960720
       3935.1700      0.61853020
       3936.6400      0.51108620
       3938.1100      0.49620200
       3939.5800      0.55669120
       3941.0500      0.56743000
       3942.5200      0.53512980
       3943.9900      0.51527880
       3945.4600      0.51166830
       3946.9300      0.50590990
       3948.4000      0.52587440
       3949.8700      0.63420530
       3951.3400      0.57943800
       3952.8100      0.54783700
       3954.2800      0.74700410
       3955.7500      0.89358410
       3957.2200      0.83415720
       3958.6900      0.63231460
       3960.1600      0.62291510
       3961.6300      0.81292070
       3963.1000       1.0048500
       3964.5700      0.72501460
       3966.0400      0.63798250
       3967.5100      0.71613140
       3968.9800      0.65064780
       3970.4500      0.56991410
       3971.9200      0.52037820
       3973.3900      0.89213900
       3974.8600      0.93942960
       3976.3300      0.56601700
       3977.8000      0.55204330
       3979.2700      0.66406360
       3980.7400      0.67371360
       3982.2100      0.61620440
       3983.6800      0.89183960
       3985.1500      0.96451400
       3986.6200      0.68976480
       3988.0900      0.77079650
       3989.5600      0.66202210
       3991.0300      0.84550950
       3992.5000      0.86515160
       3993.9700      0.67797450
       3995.4400      0.83935430
       3996.9100      0.87121940
       3998.3800      0.77690400
       3999.8500      0.65653420
       4001.3200      0.89475180
       4002.7900      0.73639370
       4004.2600      0.75098590
       4005.7300      0.82410490
       4007.2000      0.89182380
       4008.6700      0.65520690
       4010.1400      0.55935900
       4011.6100      0.76805020
       4013.0800      0.92287920
       4014.5500      0.72872120
       4016.0200      0.60508230
       4017.4900      0.72725490
       4018.9600      0.82610890
       4020.4300      0.61837100
       4021.9000      0.86892380
       4023.3700      0.63801650
       4024.8400      0.66426500
       4026.3100      0.68487370
       4027.7800      0.77759920
       4029.2500      0.55457840
       4030.7200      0.62284420
       4032.1900      0.65314290
       4033.6600      0.67358570
       4035.1300      0.73427370
       4036.6000      0.63760040
       4038.0700      0.56757210
       4039.5400      0.77393610
       4041.0100      0.62273590
       4042.4800      0.61678210
       4043.9500      0.71279190
       4045.4200       1.0534550
       4046.8900      0.72509750
       4048.3600      0.87888230
       4049.8300      0.87588760
       4051.3000      0.65124460
       4052.7700      0.76194830
       4054.2400      0.78918640
       4055.7100      0.58374400
       4057.1800      0.58108140
       4058.6500      0.77101130
       4060.1200      0.72993530
       4061.5900      0.66239270
       4063.0600      0.84623150
       4064.5300      0.80587880
       4066.0000      0.63480570
       4067.4700      0.54019880
       4068.9400      0.65536180
       4070.4100      0.67716710
       4071.8800      0.60189220
       4073.3500      0.61833220
       4074.8200      0.67731990
       4076.2900      0.55376860
       4077.7600      0.61891660
       4079.2300      0.63394050
       4080.7000      0.58597670
       4082.1700      0.58471290
       4083.6400      0.61608580
       4085.1100      0.51853830
       4086.5800      0.47621080
       4088.0500      0.58960290
       4089.5200      0.64117700
       4090.9900      0.61617470
       4092.4600      0.62553110
       4093.9300      0.60584990
       4095.4000      0.57613720
       4096.8700      0.54430330
       4098.3400      0.61350720
       4099.8100      0.66671230
       4101.2800      0.74278210
       4102.7500      0.86109270
       4104.2200      0.59797170
       4105.6900      0.50575380
       4107.1600      0.55687430
       4108.6300      0.52421590
       4110.1000      0.61237060
       4111.5700      0.60161290
       4113.0400      0.54660790
       4114.5100      0.50350600
       4115.9800      0.38474760
       4117.4500      0.43583610
       4118.9200      0.53846190
       4120.3900      0.41957870
       4121.8600      0.42248690
       4123.3300      0.50407250
       4124.8000      0.48425630
       4126.2700      0.49863070
       4127.7400      0.48356450
       4129.2100      0.48110840
       4130.6800      0.51304700
       4132.1500      0.54978660
       4133.6200      0.49124670
       4135.0900      0.49866460
       4136.5600      0.42573610
       4138.0300      0.40878940
       4139.5000      0.42113990
       4140.9700      0.39830380
       4142.4400      0.40789770
       4143.9100      0.42788240
       4145.3800      0.50326450
       4146.8500      0.50069030
       4148.3200      0.44903150
       4149.7900      0.50612960
       4151.2600      0.47022170
       4152.7300      0.43335460
       4154.2000      0.39931280
       4155.6700      0.39466490
       4157.1400      0.44286640
       4158.6100      0.38609620
       4160.0800      0.34414560
       4161.5500      0.33376970
       4163.0200      0.40461030
       4164.4900      0.43753900
       4165.9600      0.51040780
       4167.4300      0.42719580
       4168.9000      0.36286220
       4170.3700      0.35545750
       4171.8400      0.34600660
       4173.3100      0.34269130
       4174.7800      0.36468210
       4176.2500      0.38017400
       4177.7200      0.39298860
       4179.1900      0.40984270
       4180.6600      0.42514260
       4182.1300      0.36672310
       4183.6000      0.32902770
       4185.0700      0.33049690
       4186.5400      0.38372240
       4188.0100      0.43502000
       4189.4800      0.43353530
       4190.9500      0.44336260
       4192.4200      0.33869370
       4193.8900      0.36141510
       4195.3600      0.40123740
       4196.8300      0.35910980
       4198.3000      0.40682770
       4199.7700      0.42456090
       4201.2400      0.35763590
       4202.7100      0.39626860
       4204.1800      0.35077780
       4205.6500      0.31805510
       4207.1200      0.32854820
       4208.5900      0.37683880
       4210.0600      0.38264360
       4211.5300      0.37431100
       4213.0000      0.37388830
       4214.4700      0.42138570
       4215.9400      0.40476120
       4217.4100      0.38700890
       4218.8800      0.37582630
       4220.3500      0.42658740
       4221.8200      0.41747880
       4223.2900      0.40752770
       4224.7599      0.39424100
       4226.2300      0.36075880
       4227.7000      0.37531440
       4229.1700      0.37117000
       4230.6400      0.38591330
       4232.1100      0.41086700
       4233.5800      0.39298660
       4235.0500      0.40872930
       4236.5200      0.42977990
       4237.9900      0.42461770
       4239.4600      0.41250390
       4240.9300      0.42745330
       4242.4000      0.40213450
       4243.8700      0.40895090
       4245.3400      0.40385350
       4246.8100      0.42412510
       4248.2800      0.40795630
       4249.7500      0.37000870
       4251.2200      0.39982220
       4252.6900      0.43853510
       4254.1600      0.45643460
       4255.6300      0.40846320
       4257.1000      0.41164370
       4258.5700      0.40828720
       4260.0400      0.39764350
       4261.5100      0.42746710
       4262.9800      0.44404740
       4264.4500      0.43142810
       4265.9200      0.44461220
       4267.3900      0.46361620
       4268.8600      0.43125470
       4270.3300      0.41744940
       4271.8000      0.41977190
       4273.2700      0.39685190
       4274.7400      0.39551090
       4276.2100      0.45062390
       4277.6800      0.43695190
       4279.1500      0.37041540
       4280.6200      0.38325310
       4282.0900      0.40496340
       4283.5600      0.41193290
       4285.0300      0.47645400
       4286.5000      0.45616420
       4287.9700      0.38939500
       4289.4400      0.40025690
       4290.9100      0.41522190
       4292.3800      0.44249900
       4293.8500      0.43882510
       4295.3200      0.44691320
       4296.7900      0.43645370
       4298.2600      0.40530690
       4299.7300      0.39807190
       4301.2000      0.39955660
       4302.6700      0.43048340
       4304.1400      0.44168160
       4305.6100      0.43564360
       4307.0800      0.44900550
       4308.5500      0.46102950
       4310.0200      0.42936210
       4311.4900      0.39932890
       4312.9600      0.40432980
       4314.4300      0.41211060
       4315.9000      0.43871790
       4317.3700      0.44366980
       4318.8400      0.42320420
       4320.3100      0.40178090
       4321.7800      0.40669870
       4323.2500      0.40488470
       4324.7200      0.43843710
       4326.1900      0.43700350
       4327.6600      0.42272260
       4329.1300      0.39467740
       4330.6000      0.39184560
       4332.0700      0.39557070
       4333.5400      0.40465880
       4335.0100      0.43417560
       4336.4800      0.45896680
       4337.9500      0.40388580
       4339.4200      0.39470220
       4340.8900      0.40194830
       4342.3600      0.41227940
       4343.8300      0.42321310
       4345.3000      0.42351960
       4346.7700      0.44773020
       4348.2400      0.49307330
       4349.7100      0.45889010
       4351.1800      0.43586670
       4352.6500      0.43003970
       4354.1200      0.41739050
       4355.5900      0.41271590
       4357.0600      0.43555920
       4358.5300      0.43437030
       4360.0000      0.41746530
       4361.4700      0.43650220
       4362.9400      0.44893540
       4364.4100      0.47888960
       4365.8800      0.44421940
       4367.3500      0.42145730
       4368.8200      0.42162110
       4370.2900      0.42609040
       4371.7600      0.40755730
       4373.2300      0.43091380
       4374.7000      0.47298470
       4376.1700      0.47534940
       4377.6400      0.47408490
       4379.1100      0.45380260
       4380.5800      0.44766020
       4382.0500      0.48488360
       4383.5200      0.51475020
       4384.9900      0.49865880
       4386.4600      0.46452220
       4387.9300      0.45769610
       4389.4000      0.43606910
       4390.8700      0.48829040
       4392.3400      0.46085450
       4393.8100      0.42801970
       4395.2800      0.45486230
       4396.7500      0.42109580
       4398.2200      0.42552520
       4399.6900      0.43922250
       4401.1600      0.41836960
       4402.6300      0.41865430
       4404.1000      0.41960370
       4405.5700      0.36161730
       4407.0400      0.43340560
       4408.5100      0.43343120
       4409.9800      0.43986750
       4411.4500      0.40652580
       4412.9200      0.41495750
       4414.3900      0.36636900
       4415.8600      0.38518610
       4417.3300      0.43025730
       4418.8000      0.42647900
       4420.2700      0.42432110
       4421.7400      0.42475930
       4423.2100      0.40750140
       4424.6800      0.39376630
       4426.1500      0.39915550
       4427.6200      0.42700650
       4429.0900      0.41149960
       4430.5600      0.42601660
       4432.0300      0.44647980
       4433.5000      0.41667930
       4434.9700      0.39453660
       4436.4400      0.37989090
       4437.9100      0.43761780
       4439.3800      0.42054460
       4440.8500      0.41920640
       4442.3200      0.44891150
       4443.7900      0.41390290
       4445.2600      0.42054670
       4446.7300      0.47194800
       4448.2000      0.44862580
       4449.6700      0.40895040
       4451.1400      0.39467920
       4452.6100      0.40635580
       4454.0800      0.39208840
       4455.5500      0.43652480
       4457.0200      0.44296990
       4458.4900      0.44370060
       4459.9600      0.41876670
       4461.4300      0.44653400
       4462.9000      0.46218920
       4464.3700      0.44641950
       4465.8400      0.44582580
       4467.3100      0.45756370
       4468.7800      0.44236500
       4470.2500      0.44284050
       4471.7200      0.48970420
       4473.1900      0.51183270
       4474.6600      0.51115020
       4476.1300      0.45256740
       4477.6000      0.46513870
       4479.0700      0.54040070
       4480.5400      0.52210930
       4482.0100      0.50166700
       4483.4800      0.52783350
       4484.9500      0.48861070
       4486.4200      0.48957800
       4487.8900      0.53627680
       4489.3600      0.56169580
       4490.8300      0.56751480
       4492.3000      0.52489270
       4493.7700      0.50338530
       4495.2400      0.56872740
       4496.7100      0.60646780
       4498.1800      0.57482290
       4499.6500      0.54068930
       4501.1200      0.55631620
       4502.5900      0.61298430
       4504.0600      0.62606360
       4505.5300      0.63813610
       4507.0000      0.65029730
       4508.4700      0.63567840
       4509.9400      0.62919200
       4511.4100      0.61410360
       4512.8800      0.64429510
       4514.3500      0.67344270
       4515.8200      0.66653590
       4517.2900      0.66720220
       4518.7600      0.68404610
       4520.2300      0.71313530
       4521.7000      0.72641210
       4523.1700      0.73322240
       4524.6400      0.74585800
       4526.1100      0.73614040
       4527.5800      0.70922460
       4529.0500      0.72560540
       4530.5200      0.78497080
       4531.9900      0.80933180
       4533.4600      0.78536410
       4534.9300      0.78721760
       4536.4000      0.83179090
       4537.8699      0.83472320
       4539.3400      0.79409210
       4540.8100      0.81526690
       4542.2800      0.80483580
       4543.7500      0.79829780
       4545.2200      0.85400310
       4546.6900      0.85014960
       4548.1600      0.82558650
       4549.6300      0.83615990
       4551.1000      0.81754600
       4552.5700      0.83865390
       4554.0400      0.87412130
       4555.5100      0.89694880
       4556.9800      0.89697010
       4558.4500      0.90007750
       4559.9200      0.89788060
       4561.3900      0.88967370
       4562.8600      0.92058740
       4564.3300      0.96804800
       4565.8000      0.95890150
       4567.2700      0.95365280
       4568.7400      0.99074720
       4570.2100       1.0001320
       4571.6800      0.97500470
       4573.1500      0.99614340
       4574.6200       1.0240640
       4576.0900       1.0524590
       4577.5600       1.0563450
       4579.0300      0.98170320
       4580.5000      0.97650520
       4581.9700       1.0544110
       4583.4400       1.0405630
       4584.9100       1.0106420
       4586.3800       1.0621250
       4587.8500       1.0942070
       4589.3200       1.1103150
       4590.7900       1.1301620
       4592.2600       1.1156860
       4593.7300       1.0782640
       4595.2000       1.0940030
       4596.6700       1.1392730
       4598.1400       1.1277450
       4599.6100       1.1078440
       4601.0800       1.1419230
       4602.5500       1.1487640
       4604.0200       1.1072460
       4605.4900       1.1312760
       4606.9600       1.1685850
       4608.4300       1.1270440
       4609.9000       1.1469530
       4611.3700       1.1907670
       4612.8400       1.1636790
       4614.3100       1.0983320
       4615.7800       1.0839870
       4617.2500       1.0991250
       4618.7200       1.0949890
       4620.1900       1.0903480
       4621.6600       1.0898050
       4623.1300       1.1209310
       4624.6000       1.1654070
       4626.0700       1.2078650
       4627.5400       1.1788270
       4629.0100       1.1330760
       4630.4800       1.1268610
       4631.9500       1.1571020
       4633.4200       1.1831850
       4634.8900       1.1555670
       4636.3600       1.1988980
       4637.8300       1.1812700
       4639.3000       1.1630860
       4640.7700       1.1344230
       4642.2400       1.1709490
       4643.7100       1.1391550
       4645.1800       1.1162470
       4646.6500       1.1424480
       4648.1200       1.1789870
       4649.5900       1.1852490
       4651.0600       1.1540070
       4652.5300       1.1043600
       4654.0000       1.1132400
       4655.4700       1.1380740
       4656.9400       1.1119110
       4658.4100       1.0870960
       4659.8800       1.0984720
       4661.3500       1.1032490
       4662.8200       1.0833020
       4664.2900       1.0740820
       4665.7600       1.0886070
       4667.2300       1.0751770
       4668.7000       1.0357100
       4670.1700       1.0727860
       4671.6400       1.0435510
       4673.1100       1.0472240
       4674.5800       1.0408580
       4676.0500       1.0480270
       4677.5200       1.0547230
       4678.9900       1.0743050
       4680.4600       1.0444840
       4681.9300       1.0203800
       4683.4000       1.0695400
       4684.8700       1.0739100
       4686.3400      0.98570220
       4687.8100      0.99216870
       4689.2800      0.99598630
       4690.7500       1.0157210
       4692.2200      0.97805110
       4693.6900      0.98097710
       4695.1600      0.99238740
       4696.6300       1.0131910
       4698.1000      0.95750390
       4699.5700      0.91041610
       4701.0400      0.89497420
       4702.5100      0.88829170
       4703.9800      0.85698920
       4705.4500      0.84308080
       4706.9200      0.87999250
       4708.3900      0.86461500
       4709.8600      0.79966550
       4711.3300      0.82975370
       4712.8000      0.83038410
       4714.2700      0.80762770
       4715.7400      0.83885180
       4717.2100      0.84819390
       4718.6800      0.84308430
       4720.1500      0.86716330
       4721.6200      0.88517840
       4723.0900      0.86005930
       4724.5600      0.78506420
       4726.0300      0.80045830
       4727.5000      0.77744950
       4728.9700      0.79282000
       4730.4400      0.79179140
       4731.9100      0.78830600
       4733.3800      0.78380630
       4734.8500      0.74960790
       4736.3200      0.75732090
       4737.7900      0.78552060
       4739.2600      0.74095480
       4740.7300      0.77153040
       4742.2000      0.83935140
       4743.6700      0.84334790
       4745.1400      0.78389930
       4746.6100      0.72261070
       4748.0800      0.72852480
       4749.5500      0.77500390
       4751.0200      0.80822310
       4752.4900      0.74506590
       4753.9600      0.72292360
       4755.4300      0.75624870
       4756.9000      0.76611040
       4758.3700      0.75125940
       4759.8400      0.72918340
       4761.3100      0.78345230
       4762.7800      0.75420490
       4764.2500      0.73629750
       4765.7200      0.72933720
       4767.1900      0.71693520
       4768.6600      0.73720230
       4770.1300      0.71950730
       4771.6000      0.71822600
       4773.0700      0.72493100
       4774.5400      0.71346180
       4776.0100      0.67605260
       4777.4800      0.68595430
       4778.9500      0.71381400
       4780.4200      0.69345060
       4781.8900      0.66353360
       4783.3600      0.61594050
       4784.8300      0.62928410
       4786.3000      0.67650910
       4787.7700      0.65842670
       4789.2400      0.64766940
       4790.7100      0.65570190
       4792.1800      0.67341250
       4793.6500      0.66702350
       4795.1200      0.68330560
       4796.5900      0.66739920
       4798.0600      0.65645820
       4799.5300      0.63387020
       4801.0000      0.60414330
       4802.4700      0.59567030
       4803.9400      0.59471450
       4805.4100      0.63110490
       4806.8800      0.64076270
       4808.3500      0.60590490
       4809.8200      0.56982280
       4811.2900      0.61134370
       4812.7600      0.60700650
       4814.2300      0.61670700
       4815.7000      0.60607240
       4817.1700      0.57468440
       4818.6400      0.60113500
       4820.1100      0.56409590
       4821.5800      0.58512230
       4823.0500      0.59983550
       4824.5200      0.60300790
       4825.9900      0.62095620
       4827.4600      0.63297580
       4828.9300      0.62756200
       4830.4000      0.64129530
       4831.8700      0.65922270
       4833.3400      0.64901910
       4834.8100      0.63586280
       4836.2800      0.65994910
       4837.7500      0.67267970
       4839.2200      0.68349640
       4840.6900      0.68230070
       4842.1600      0.66230430
       4843.6300      0.68766610
       4845.1000      0.65106380
       4846.5700      0.65727590
       4848.0400      0.69892700
       4849.5100      0.72740100
       4850.9799      0.70845320
       4852.4500      0.66504820
       4853.9200      0.64169110
       4855.3900      0.65306010
       4856.8600      0.70349320
       4858.3300      0.73293040
       4859.8000      0.70652220
       4861.2700      0.66729280
       4862.7400      0.67420850
       4864.2100      0.69221790
       4865.6800      0.66223340
       4867.1500      0.62956830
       4868.6200      0.65449450
       4870.0900      0.68589790
       4871.5600      0.66730710
       4873.0300      0.68274570
       4874.5000      0.69364300
       4875.9700      0.67236390
       4877.4400      0.63978560
       4878.9100      0.65750070
       4880.3800      0.71803370
       4881.8500      0.71495850
       4883.3200      0.70697180
       4884.7900      0.71614620
       4886.2600      0.68226800
       4887.7300      0.65891270
       4889.2000      0.64425380
       4890.6700      0.67157380
       4892.1400      0.70868610
       4893.6100      0.67569850
       4895.0800      0.68248310
       4896.5500      0.66789000
       4898.0200      0.67694480
       4899.4900      0.68239580
       4900.9600      0.65562810
       4902.4300      0.66435380
       4903.9000      0.68463090
       4905.3700      0.68622650
       4906.8400      0.67795420
       4908.3100      0.66935640
       4909.7800      0.66552290
       4911.2500      0.69899700
       4912.7200      0.68549850
       4914.1900      0.67029210
       4915.6600      0.67910300
       4917.1300      0.68669470
       4918.6000      0.70297620
       4920.0700      0.71745450
       4921.5400      0.73116200
       4923.0100      0.72493280
       4924.4800      0.69907850
       4925.9500      0.71383600
       4927.4200      0.70715580
       4928.8900      0.74464330
       4930.3600      0.75469890
       4931.8300      0.69748900
       4933.3000      0.70990670
       4934.7700      0.74253290
       4936.2400      0.81084680
       4937.7100      0.84095770
       4939.1800      0.81870620
       4940.6500      0.75746280
       4942.1200      0.74021090
       4943.5900      0.77560550
       4945.0600      0.82804840
       4946.5300      0.83649520
       4948.0000      0.82850670
       4949.4700      0.84561600
       4950.9400      0.86553960
       4952.4100      0.87132970
       4953.8800      0.88326750
       4955.3500      0.87671420
       4956.8200      0.87569850
       4958.2900      0.89095660
       4959.7600      0.93706580
       4961.2300      0.92426780
       4962.7000      0.91906090
       4964.1700      0.97217290
       4965.6400      0.97879110
       4967.1100      0.91862280
       4968.5800      0.95114960
       4970.0500      0.98417990
       4971.5200      0.99363280
       4972.9900      0.98567710
       4974.4600      0.97430830
       4975.9300       1.0043770
       4977.4000       1.0038550
       4978.8700       1.0174960
       4980.3400       1.0510810
       4981.8100       1.0418980
       4983.2800      0.99555440
       4984.7500      0.99568530
       4986.2200       1.0230490
       4987.6900      0.99844020
       4989.1600      0.97450630
       4990.6300      0.97959070
       4992.1000      0.97412440
       4993.5700      0.97960860
       4995.0400      0.99608650
       4996.5100       1.0152600
       4997.9800      0.95708210
       4999.4500      0.91174000
       5000.9200      0.91816960
       5002.3900      0.92539880
       5003.8600      0.89427630
       5005.3300      0.87770230
       5006.8000      0.89624570
       5008.2700      0.84423600
       5009.7400      0.80840460
       5011.2100      0.80875640
       5012.6800      0.82052400
       5014.1500      0.77261280
       5015.6200      0.75983060
       5017.0900      0.76812420
       5018.5600      0.75614750
       5020.0300      0.71360890
       5021.5000      0.67617010
       5022.9700      0.67950270
       5024.4400      0.68488750
       5025.9100      0.74102220
       5027.3800      0.75457690
       5028.8500      0.74429090
       5030.3200      0.76461340
       5031.7900      0.75822300
       5033.2600      0.70247500
       5034.7300      0.63504750
       5036.2000      0.61546380
       5037.6700      0.64391580
       5039.1400      0.67007510
       5040.6100      0.63732490
       5042.0800      0.59796980
       5043.5500      0.60847720
       5045.0200      0.63154270
       5046.4900      0.74989090
       5047.9600      0.72605480
       5049.4300      0.60678880
       5050.9000      0.55595620
       5052.3700      0.56577950
       5053.8400      0.58564260
       5055.3100      0.56934090
       5056.7800      0.56376870
       5058.2500      0.57531480
       5059.7200      0.59094770
       5061.1900      0.55062700
       5062.6600      0.52976200
       5064.1300      0.56861620
       5065.6000      0.57554470
       5067.0700      0.58753330
       5068.5400      0.56376220
       5070.0100      0.52627860
       5071.4800      0.53605490
       5072.9500      0.55008560
       5074.4200      0.55640490
       5075.8900      0.56465310
       5077.3600      0.56454540
       5078.8300      0.56194930
       5080.3000      0.57538360
       5081.7700      0.57943830
       5083.2400      0.57796750
       5084.7100      0.58385080
       5086.1800      0.57348920
       5087.6500      0.55189010
       5089.1200      0.56637280
       5090.5900      0.58315930
       5092.0600      0.59810040
       5093.5300      0.63340310
       5095.0000      0.59303130
       5096.4700      0.54915310
       5097.9400      0.59694270
       5099.4100      0.62457200
       5100.8800      0.58560820
       5102.3500      0.58348740
       5103.8200      0.59525530
       5105.2900      0.60267860
       5106.7600      0.60120420
       5108.2300      0.64843030
       5109.7000      0.68870720
       5111.1700      0.65784830
       5112.6400      0.64187060
       5114.1100      0.63980360
       5115.5800      0.63074270
       5117.0500      0.63434960
       5118.5200      0.65856920
       5119.9900      0.68581180
       5121.4600      0.68849560
       5122.9300      0.69006340
       5124.4000      0.71035200
       5125.8700      0.72746170
       5127.3400      0.72237160
       5128.8100      0.71517640
       5130.2800      0.70141360
       5131.7500      0.70445480
       5133.2200      0.72066260
       5134.6900      0.76330020
       5136.1600      0.78430090
       5137.6300      0.75736230
       5139.1000      0.73004790
       5140.5700      0.73047550
       5142.0400      0.74202210
       5143.5100      0.74863980
       5144.9800      0.74802050
       5146.4500      0.77317520
       5147.9200      0.78984880
       5149.3900      0.80297280
       5150.8600      0.80902660
       5152.3300      0.82597940
       5153.8000      0.80575720
       5155.2700      0.79726090
       5156.7400      0.81085640
       5158.2100      0.80457660
       5159.6800      0.83875550
       5161.1500      0.82455640
       5162.6200      0.78530120
       5164.0899      0.80698270
       5165.5600      0.82314870
       5167.0300      0.80359610
       5168.5000      0.82964280
       5169.9700      0.83130750
       5171.4400      0.80059300
       5172.9100      0.82449190
       5174.3800      0.84525820
       5175.8500      0.81207790
       5177.3200      0.77704330
       5178.7900      0.83204940
       5180.2600      0.85819890
       5181.7300      0.82843180
       5183.2000      0.84377560
       5184.6700      0.83289960
       5186.1400      0.80142510
       5187.6100      0.83640340
       5189.0800      0.87057810
       5190.5500      0.91396420
       5192.0200      0.90309720
       5193.4900      0.83626870
       5194.9600      0.82995080
       5196.4300      0.83658020
       5197.9000      0.81796780
       5199.3700      0.84888770
       5200.8400      0.85432800
       5202.3100      0.83016220
       5203.7800      0.85233860
       5205.2500      0.87253550
       5206.7200      0.88013110
       5208.1900      0.87867800
       5209.6600      0.84172740
       5211.1300      0.80048720
       5212.6000      0.83805850
       5214.0700      0.90949140
       5215.5400      0.92541390
       5217.0100      0.91646060
       5218.4800      0.91572140
       5219.9500      0.91699240
       5221.4200      0.92434030
       5222.8900      0.93615730
       5224.3600      0.93849770
       5225.8300      0.91078880
       5227.3000      0.89578260
       5228.7700      0.89567490
       5230.2400      0.90470110
       5231.7100      0.94390780
       5233.1800      0.96559210
       5234.6500      0.98556080
       5236.1200      0.97530080
       5237.5900      0.95119150
       5239.0600      0.95370540
       5240.5300      0.95500830
       5242.0000      0.97962230
       5243.4700      0.99532770
       5244.9400       1.0004120
       5246.4100       1.0312370
       5247.8800       1.0479960
       5249.3500      0.98617460
       5250.8200      0.93596150
       5252.2900      0.97012360
       5253.7600       1.0233590
       5255.2300       1.0517210
       5256.7000       1.0361310
       5258.1700       1.0167520
       5259.6400       1.0135230
       5261.1100       1.0324020
       5262.5800       1.0447970
       5264.0500       1.0606370
       5265.5200       1.0750590
       5266.9900       1.0651700
       5268.4600       1.0542160
       5269.9300       1.0205950
       5271.4000       1.0117190
       5272.8700       1.0238290
       5274.3400       1.0371690
       5275.8100       1.0621360
       5277.2800       1.0754970
       5278.7500       1.0450540
       5280.2200       1.0606270
       5281.6900       1.1164410
       5283.1600       1.1131950
       5284.6300       1.1132960
       5286.1000       1.1404280
       5287.5700       1.1223270
       5289.0400       1.1127540
       5290.5100       1.1313890
       5291.9800       1.1315770
       5293.4500       1.1444320
       5294.9200       1.1474760
       5296.3900       1.1243290
       5297.8600       1.1329070
       5299.3300       1.1568680
       5300.8000       1.1411750
       5302.2700       1.1390210
       5303.7400       1.1570100
       5305.2100       1.1270670
       5306.6800       1.1129610
       5308.1500       1.1482940
       5309.6200       1.1523250
       5311.0900       1.1337260
       5312.5600       1.1458640
       5314.0300       1.1512550
       5315.5000       1.1275310
       5316.9700       1.1800470
       5318.4400       1.2098710
       5319.9100       1.1651920
       5321.3800       1.1541410
       5322.8500       1.1884320
       5324.3200       1.2494860
       5325.7900       1.2269690
       5327.2600       1.2091770
       5328.7300       1.2451230
       5330.2000       1.2284450
       5331.6700       1.2239620
       5333.1400       1.2116340
       5334.6100       1.2091190
       5336.0800       1.2458120
       5337.5500       1.2297090
       5339.0200       1.2320500
       5340.4900       1.2557380
       5341.9600       1.2305610
       5343.4300       1.2401190
       5344.9000       1.2869030
       5346.3700       1.2436020
       5347.8400       1.2131430
       5349.3100       1.2691920
       5350.7800       1.2649280
       5352.2500       1.2169620
       5353.7200       1.2192690
       5355.1900       1.2526430
       5356.6600       1.2499610
       5358.1300       1.2411650
       5359.6000       1.2571810
       5361.0700       1.2521800
       5362.5400       1.2646390
       5364.0100       1.2227580
       5365.4800       1.1763240
       5366.9500       1.2283890
       5368.4200       1.2784670
       5369.8900       1.2907000
       5371.3600       1.2705790
       5372.8300       1.2553820
       5374.3000       1.2410640
       5375.7700       1.2374560
       5377.2400       1.2694490
       5378.7100       1.2870820
       5380.1800       1.2732070
       5381.6500       1.2488830
       5383.1200       1.2511020
       5384.5900       1.2585570
       5386.0600       1.2452170
       5387.5300       1.2104830
       5389.0000       1.2434290
       5390.4700       1.2888260
       5391.9400       1.2713900
       5393.4100       1.2192340
       5394.8800       1.2402620
       5396.3500       1.2720500
       5397.8200       1.2207040
       5399.2900       1.2124230
       5400.7600       1.2163490
       5402.2300       1.2041100
       5403.7000       1.2283700
       5405.1700       1.2456730
       5406.6400       1.2596170
       5408.1100       1.2509330
       5409.5800       1.2136850
       5411.0500       1.1969450
       5412.5200       1.1961070
       5413.9900       1.1851610
       5415.4600       1.1577900
       5416.9300       1.1660190
       5418.4000       1.1526910
       5419.8700       1.1462920
       5421.3400       1.1599060
       5422.8100       1.1205260
       5424.2800       1.1063020
       5425.7500       1.0930960
       5427.2200       1.0961570
       5428.6900       1.1082980
       5430.1600       1.1061960
       5431.6300       1.1019680
       5433.1000       1.1060500
       5434.5700       1.0896620
       5436.0400       1.0454320
       5437.5100       1.0544200
       5438.9800       1.0688640
       5440.4500       1.0679750
       5441.9200       1.0554800
       5443.3900       1.0396150
       5444.8600       1.0445270
       5446.3300       1.0651450
       5447.8000       1.0323860
       5449.2700       1.0069390
       5450.7400       1.0255930
       5452.2100       1.0022120
       5453.6800      0.96961770
       5455.1500      0.98490500
       5456.6200       1.0157900
       5458.0900       1.0328900
       5459.5600       1.0049470
       5461.0300      0.99178980
       5462.5000       1.0404320
       5463.9700       1.0298530
       5465.4400       1.0516520
       5466.9100       1.0915920
       5468.3800       1.0949570
       5469.8500       1.1264810
       5471.3200       1.1311060
       5472.7900       1.1009240
       5474.2600       1.1033320
       5475.7300       1.1516990
       5477.2000       1.1860550
       5478.6700       1.2021790
       5480.1400       1.2634490
       5481.6100       1.2757050
       5483.0800       1.2688930
       5484.5500       1.2814540
       5486.0200       1.2568360
       5487.4900       1.2732490
       5488.9600       1.3516000
       5490.4300       1.4148500
       5491.9000       1.3999420
       5493.3700       1.3931330
       5494.8400       1.4180510
       5496.3100       1.4485220
       5497.7800       1.4787460
       5499.2500       1.5111470
       5500.7200       1.5317850
       5502.1900       1.5367200
       5503.6600       1.5639970
       5505.1300       1.5703340
       5506.6000       1.5743260
       5508.0700       1.6126820
       5509.5400       1.6776400
       5511.0100       1.7270270
       5512.4800       1.6892570
       5513.9500       1.6998350
       5515.4200       1.7700420
       5516.8900       1.7472600
       5518.3600       1.7084360
       5519.8300       1.7413140
       5521.3000       1.7832390
       5522.7700       1.7832110
       5524.2400       1.7946080
       5525.7100       1.8055310
       5527.1800       1.8020600
       5528.6500       1.7996300
       5530.1200       1.7577000
       5531.5900       1.7213130
       5533.0600       1.7582150
       5534.5300       1.8062760
       5536.0000       1.7735800
       5537.4700       1.7291960
       5538.9400       1.7398480
       5540.4100       1.7800190
       5541.8800       1.7978530
       5543.3500       1.7521450
       5544.8200       1.7182910
       5546.2900       1.7228260
       5547.7600       1.7130220
       5549.2300       1.6658340
       5550.7000       1.6215790
       5552.1700       1.6014740
       5553.6400       1.5856470
       5555.1100       1.6010460
       5556.5800       1.5893690
       5558.0500       1.5648120
       5559.5200       1.5720070
       5560.9900       1.5686300
       5562.4600       1.5367630
       5563.9300       1.4701570
       5565.4000       1.4412620
       5566.8700       1.4416200
       5568.3400       1.4042070
       5569.8100       1.3716020
       5571.2800       1.3460920
       5572.7500       1.3061000
       5574.2200       1.3019290
       5575.6900       1.3130700
       5577.1600       1.3109090
       5578.6300       1.3001740
       5580.1000       1.2484870
       5581.5700       1.1872060
       5583.0400       1.1674730
       5584.5100       1.1385900
       5585.9800       1.1321090
       5587.4500       1.1553490
       5588.9200       1.1387650
       5590.3900       1.1291690
       5591.8600       1.1119860
       5593.3300       1.0934980
       5594.8000       1.0819720
       5596.2700       1.0854170
       5597.7400       1.1237920
       5599.2100       1.1305630
       5600.6800       1.1131050
       5602.1500       1.1049300
       5603.6200       1.1013770
       5605.0900       1.1146430
       5606.5600       1.1311000
       5608.0300       1.1342150
       5609.5000       1.1319090
       5610.9700       1.1407360
       5612.4400       1.1541160
       5613.9100       1.1613710
       5615.3800       1.1760390
       5616.8500       1.1752400
       5618.3200       1.1754590
       5619.7900       1.2087340
       5621.2600       1.2009860
       5622.7300       1.1858520
       5624.2000       1.2139970
       5625.6700       1.2413490
       5627.1400       1.2534050
       5628.6100       1.2601100
       5630.0800       1.2724690
       5631.5500       1.2504070
       5633.0200       1.2463610
       5634.4900       1.2812240
       5635.9600       1.2949910
       5637.4300       1.3030620
       5638.9000       1.3374810
       5640.3700       1.3501600
       5641.8400       1.3279660
       5643.3100       1.3320230
       5644.7800       1.3503460
       5646.2500       1.3496680
       5647.7200       1.3428400
       5649.1900       1.3247400
       5650.6600       1.3159790
       5652.1300       1.2918850
       5653.6000       1.2695860
       5655.0700       1.2944450
       5656.5400       1.2881970
       5658.0100       1.2741200
       5659.4800       1.2631510
       5660.9500       1.2831200
       5662.4200       1.2897360
       5663.8900       1.2339600
       5665.3600       1.2105940
       5666.8300       1.1612580
       5668.3000       1.0885110
       5669.7700       1.0584680
       5671.2400       1.0504550
       5672.7100       1.0454890
       5674.1800       1.0321880
       5675.6500       1.0082410
       5677.1200      0.96019410
       5678.5900      0.90643770
       5680.0600      0.90036830
       5681.5300      0.89220200
       5683.0000      0.83480440
       5684.4700      0.84807240
       5685.9400      0.84901790
       5687.4100      0.81753630
       5688.8800      0.82255890
       5690.3500      0.84155950
       5691.8200      0.84273420
       5693.2900      0.81980880
       5694.7600      0.77899840
       5696.2300      0.78450390
       5697.7000      0.77427970
       5699.1700      0.71238420
       5700.6400      0.74809680
       5702.1100      0.78619770
       5703.5800      0.77067640
       5705.0500      0.71944630
       5706.5200      0.66794100
       5707.9900      0.68275490
       5709.4600      0.73084590
       5710.9300      0.73951720
       5712.4000      0.68852210
       5713.8700      0.67213140
       5715.3400      0.67815350
       5716.8100      0.68860240
       5718.2800      0.69358940
       5719.7500      0.68964220
       5721.2200      0.68667390
       5722.6900      0.68924860
       5724.1600      0.68970810
       5725.6300      0.66490480
       5727.1000      0.67360230
       5728.5700      0.70739690
       5730.0400      0.69801220
       5731.5100      0.68349390
       5732.9800      0.67825940
       5734.4500      0.66903700
       5735.9200      0.67988800
       5737.3900      0.70519390
       5738.8600      0.71768360
       5740.3300      0.69269600
       5741.8000      0.67543780
       5743.2700      0.67202350
       5744.7400      0.64524160
       5746.2100      0.63686600
       5747.6800      0.64113150
       5749.1500      0.64574430
       5750.6200      0.65631170
       5752.0900      0.62991610
       5753.5600      0.61605970
       5755.0300      0.62429880
       5756.5000      0.61895590
       5757.9700      0.63294990
       5759.4400      0.65345730
       5760.9100      0.63952770
       5762.3800      0.62016380
       5763.8500      0.62533840
       5765.3200      0.62862360
       5766.7900      0.62191520
       5768.2600      0.60236440
       5769.7300      0.59645120
       5771.2000      0.61101350
       5772.6700      0.59903790
       5774.1400      0.58670990
       5775.6100      0.59357280
       5777.0800      0.61977930
       5778.5500      0.63563130
       5780.0200      0.61335360
       5781.4900      0.59654560
       5782.9600      0.61069560
       5784.4300      0.61924010
       5785.9000      0.62020050
       5787.3700      0.61125680
       5788.8400      0.59894080
       5790.3100      0.60883760
       5791.7800      0.64847660
       5793.2500      0.66525470
       5794.7200      0.62249440
       5796.1900      0.60908800
       5797.6600      0.62082640
       5799.1300      0.61705920
       5800.6000      0.62145270
       5802.0700      0.62005220
       5803.5400      0.62341910
       5805.0100      0.64007730
       5806.4800      0.64933650
       5807.9500      0.65938530
       5809.4200      0.66268640
       5810.8900      0.65988610
       5812.3600      0.69299730
       5813.8300      0.71457890
       5815.3000      0.69127400
       5816.7700      0.67412520
       5818.2400      0.71099580
       5819.7100      0.73804350
       5821.1800      0.71884300
       5822.6500      0.73815020
       5824.1200      0.77275160
       5825.5900      0.79287250
       5827.0600      0.81081520
       5828.5300      0.84952280
       5830.0000      0.86732180
       5831.4700      0.87393410
       5832.9400      0.88736270
       5834.4100      0.87192210
       5835.8800      0.92055930
       5837.3500      0.98799790
       5838.8200      0.98736240
       5840.2900      0.98129960
       5841.7600      0.98989200
       5843.2300       1.0081870
       5844.7000       1.0037520
       5846.1700       1.0298650
       5847.6400       1.0694810
       5849.1100       1.1001980
       5850.5800       1.1058700
       5852.0500       1.1068360
       5853.5200       1.1337090
       5854.9900       1.1378470
       5856.4600       1.1253620
       5857.9300       1.1609650
       5859.4000       1.2029080
       5860.8700       1.2219420
       5862.3400       1.2097600
       5863.8100       1.2204700
       5865.2800       1.2318760
       5866.7500       1.2475490
       5868.2200       1.2942220
       5869.6900       1.2927590
       5871.1600       1.2599170
       5872.6300       1.2847870
       5874.1000       1.3310110
       5875.5700       1.3330680
       5877.0400       1.3321340
       5878.5100       1.3154550
       5879.9800       1.3581190
       5881.4500       1.3670470
       5882.9200       1.3773030
       5884.3900       1.3690380
       5885.8600       1.3413730
       5887.3300       1.3321370
       5888.8000       1.3652540
       5890.2700       1.3862200
       5891.7400       1.3709410
       5893.2100       1.3822610
       5894.6800       1.3886590
       5896.1500       1.3778330
       5897.6200       1.4407890
       5899.0900       1.4651980
       5900.5600       1.4426480
       5902.0300       1.4654520
       5903.5000       1.4834960
       5904.9700       1.4812990
       5906.4400       1.4689910
       5907.9100       1.4557550
       5909.3800       1.4637850
       5910.8500       1.4672650
       5912.3200       1.4408990
       5913.7900       1.4347170
       5915.2600       1.4362240
       5916.7300       1.4231750
       5918.2000       1.3726580
       5919.6700       1.3886920
       5921.1400       1.4301030
       5922.6100       1.4354720
       5924.0800       1.4278930
       5925.5500       1.4022600
       5927.0200       1.4302960
       5928.4900       1.5043050
       5929.9600       1.4770930
       5931.4300       1.4312810
       5932.9000       1.4579490
       5934.3700       1.4827410
       5935.8400       1.4725220
       5937.3100       1.4929980
       5938.7800       1.5216660
       5940.2500       1.4810200
       5941.7200       1.4813000
       5943.1900       1.4901750
       5944.6600       1.4698790
       5946.1300       1.4264400
       5947.6000       1.4279690
       5949.0700       1.4284400
       5950.5400       1.4276110
       5952.0100       1.4370680
       5953.4800       1.4088760
       5954.9500       1.4360770
       5956.4200       1.4610330
       5957.8900       1.4014810
       5959.3600       1.3788150
       5960.8300       1.4510650
       5962.3000       1.4623160
       5963.7700       1.4020480
       5965.2400       1.3921210
       5966.7100       1.4111350
       5968.1800       1.4135590
       5969.6500       1.4244970
       5971.1200       1.4102670
       5972.5900       1.4045620
       5974.0600       1.3952740
       5975.5300       1.3902700
       5977.0001       1.4119800
       5978.4700       1.4066210
       5979.9400       1.3754370
       5981.4100       1.3701330
       5982.8800       1.3536090
       5984.3500       1.3535650
       5985.8200       1.3975930
       5987.2900       1.4244820
       5988.7600       1.3990620
       5990.2300       1.3510560
       5991.7000       1.3385730
       5993.1700       1.3270040
       5994.6400       1.3338420
       5996.1100       1.3855810
       5997.5800       1.3756200
       5999.0500       1.3198320
       6000.5200       1.3088070
       6001.9900       1.3112260
       6003.4600       1.3164220
       6004.9300       1.3167150
       6006.4000       1.2901330
       6007.8700       1.2863870
       6009.3400       1.3103010
       6010.8100       1.2609510
       6012.2800       1.2134000
       6013.7500       1.2539830
       6015.2200       1.2979240
       6016.6900       1.2950870
       6018.1600       1.2451920
       6019.6300       1.2127570
       6021.1000       1.2103260
       6022.5700       1.1994390
       6024.0400       1.1929400
       6025.5100       1.2237470
       6026.9800       1.2433510
       6028.4500       1.2130350
       6029.9200       1.1359460
       6031.3900       1.1164710
       6032.8600       1.1749900
       6034.3300       1.1809150
       6035.8000       1.1520780
       6037.2700       1.1424690
       6038.7400       1.1402940
       6040.2100       1.1111470
       6041.6800       1.1181340
       6043.1500       1.1379090
       6044.6200       1.1236160
       6046.0900       1.1090590
       6047.5600       1.0883710
       6049.0300       1.0809380
       6050.5000       1.0936220
       6051.9700       1.0908410
       6053.4400       1.0730720
       6054.9100       1.0646560
       6056.3800       1.0902860
       6057.8500       1.0923320
       6059.3200       1.0724140
       6060.7900       1.0824440
       6062.2600       1.0762260
       6063.7300       1.0660630
       6065.2000       1.0381980
       6066.6700       1.0291610
       6068.1400      0.98910790
       6069.6100      0.98638240
       6071.0800      0.95464780
       6072.5500      0.92485050
       6074.0200      0.93601030
       6075.4900      0.93336660
       6076.9600      0.99151290
       6078.4300       1.0250150
       6079.9000      0.96928490
       6081.3700      0.90755210
       6082.8400      0.92191520
       6084.3100      0.93184110
       6085.7800      0.92156430
       6087.2500      0.93983320
       6088.7200      0.98214480
       6090.1900      0.97028180
       6091.6600      0.95467640
       6093.1300      0.97833000
       6094.6000      0.99471970
       6096.0700      0.99220190
       6097.5400       1.0068670
       6099.0100      0.99619380
       6100.4800      0.97888870
       6101.9500      0.98021560
       6103.4200       1.0019860
       6104.8900       1.0066580
       6106.3600      0.97446580
       6107.8300      0.99195000
       6109.3000       1.0426000
       6110.7700       1.0278760
       6112.2400      0.98887070
       6113.7100      0.99205370
       6115.1800       1.0170700
       6116.6500       1.0286130
       6118.1200       1.0286120
       6119.5900       1.0397110
       6121.0600       1.0445530
       6122.5300       1.0159850
       6124.0000       1.0470940
       6125.4700       1.0216240
       6126.9400       1.0009240
       6128.4100      0.97816970
       6129.8800      0.99209400
       6131.3500       1.0258060
       6132.8200       1.0286660
       6134.2900       1.0127920
       6135.7600       1.0221340
       6137.2300       1.0127630
       6138.7000       1.0222210
       6140.1700       1.0331370
       6141.6400       1.0377350
       6143.1100       1.0261360
       6144.5800      0.99306650
       6146.0500       1.0262840
       6147.5200       1.0504020
       6148.9900       1.0157220
       6150.4600      0.98585270
       6151.9300      0.98568170
       6153.4000       1.0207580
       6154.8700       1.0369140
       6156.3400       1.0537860
       6157.8100       1.0660070
       6159.2800       1.0522130
       6160.7500       1.0443250
       6162.2200       1.0295700
       6163.6900      0.99017330
       6165.1600      0.98136510
       6166.6300       1.0283100
       6168.1000       1.0496150
       6169.5700       1.0167110
       6171.0400       1.0035010
       6172.5100       1.0437480
       6173.9800       1.0700950
       6175.4500       1.0579870
       6176.9200       1.0430630
       6178.3900       1.0578940
       6179.8600       1.1011190
       6181.3300       1.1311920
       6182.8000       1.1163890
       6184.2700       1.0875400
       6185.7400       1.0932940
       6187.2100       1.1393420
       6188.6800       1.1607490
       6190.1500       1.1237610
       6191.6200       1.1513540
       6193.0900       1.2135900
       6194.5600       1.2050320
       6196.0300       1.2070020
       6197.5000       1.2205110
       6198.9700       1.2379790
       6200.4400       1.2730930
       6201.9100       1.2613690
       6203.3800       1.2502800
       6204.8500       1.2492800
       6206.3200       1.2530650
       6207.7900       1.3027940
       6209.2600       1.3381140
       6210.7300       1.3302010
       6212.2000       1.3333450
       6213.6700       1.3549260
       6215.1400       1.3544570
       6216.6100       1.3967470
       6218.0800       1.4375790
       6219.5500       1.4148110
       6221.0200       1.4173470
       6222.4900       1.4751570
       6223.9600       1.4966500
       6225.4300       1.4510730
       6226.9000       1.4809420
       6228.3700       1.5100050
       6229.8400       1.5337050
       6231.3100       1.5483370
       6232.7800       1.5602870
       6234.2500       1.5849710
       6235.7200       1.6016560
       6237.1900       1.6111670
       6238.6600       1.5950360
       6240.1300       1.6103310
       6241.6000       1.6069040
       6243.0700       1.6018170
       6244.5400       1.6138820
       6246.0100       1.6029270
       6247.4800       1.5814880
       6248.9500       1.5935830
       6250.4200       1.6218020
       6251.8900       1.6349720
       6253.3600       1.6129680
       6254.8300       1.5726350
       6256.3000       1.5714780
       6257.7700       1.6445670
       6259.2400       1.6198740
       6260.7100       1.5930490
       6262.1800       1.6374370
       6263.6500       1.5842670
       6265.1200       1.5292770
       6266.5900       1.5578280
       6268.0600       1.6050040
       6269.5300       1.6196830
       6271.0000       1.6372750
       6272.4700       1.6127270
       6273.9400       1.5623740
       6275.4100       1.5935560
       6276.8800       1.6241700
       6278.3500       1.6086700
       6279.8200       1.6347930
       6281.2900       1.6323430
       6282.7600       1.6516920
       6284.2300       1.6427430
       6285.7000       1.6171160
       6287.1700       1.5828950
       6288.6400       1.5650430
       6290.1101       1.6041070
       6291.5800       1.6572670
       6293.0500       1.6042690
       6294.5200       1.5625680
       6295.9900       1.6061640
       6297.4600       1.6741280
       6298.9300       1.6936480
       6300.4000       1.6830970
       6301.8700       1.6677490
       6303.3400       1.5726670
       6304.8100       1.5569940
       6306.2800       1.5890650
       6307.7500       1.6172090
       6309.2200       1.6159740
       6310.6900       1.5718180
       6312.1600       1.5437430
       6313.6300       1.5238850
       6315.1000       1.5285710
       6316.5700       1.5507640
       6318.0400       1.5584520
       6319.5100       1.5932460
       6320.9800       1.5738230
       6322.4500       1.5590270
       6323.9200       1.5790690
       6325.3900       1.5665170
       6326.8600       1.5289830
       6328.3300       1.5002670
       6329.8000       1.4679730
       6331.2700       1.5352480
       6332.7400       1.5571220
       6334.2100       1.5665800
       6335.6800       1.5310790
       6337.1500       1.4656470
       6338.6200       1.5123200
       6340.0900       1.4910840
       6341.5600       1.4595130
       6343.0300       1.4620610
       6344.5000       1.4751280
       6345.9700       1.4498780
       6347.4400       1.4199900
       6348.9100       1.3935370
       6350.3800       1.4041880
       6351.8500       1.4121090
       6353.3200       1.4093550
       6354.7900       1.4403570
       6356.2600       1.4270240
       6357.7300       1.4287710
       6359.2000       1.4385510
       6360.6700       1.4450760
       6362.1400       1.4323770
       6363.6100       1.4024770
       6365.0800       1.4057410
       6366.5500       1.4250330
       6368.0200       1.4309020
       6369.4900       1.4167110
       6370.9600       1.3800470
       6372.4300       1.3392830
       6373.9000       1.3537050
       6375.3700       1.3592730
       6376.8400       1.3330150
       6378.3100       1.3543340
       6379.7800       1.3379820
       6381.2500       1.3225320
       6382.7200       1.2996800
       6384.1900       1.2813170
       6385.6600       1.3254000
       6387.1300       1.3590280
       6388.6000       1.3261340
       6390.0700       1.2918080
       6391.5400       1.2944630
       6393.0100       1.2971960
       6394.4800       1.3302460
       6395.9500       1.3236980
       6397.4200       1.2885490
       6398.8900       1.2858330
       6400.3600       1.2834560
       6401.8300       1.2756040
       6403.3000       1.2988620
       6404.7700       1.3432050
       6406.2400       1.3226620
       6407.7100       1.2878780
       6409.1800       1.2594190
       6410.6500       1.2557720
       6412.1200       1.2650550
       6413.5900       1.2467970
       6415.0600       1.2735180
       6416.5300       1.2679960
       6418.0000       1.1984540
       6419.4700       1.1894070
       6420.9400       1.2290810
       6422.4100       1.2190190
       6423.8800       1.1925220
       6425.3500       1.2103550
       6426.8200       1.2224250
       6428.2900       1.2424630
       6429.7600       1.2475220
       6431.2300       1.2252540
       6432.7000       1.2361510
       6434.1700       1.2193390
       6435.6400       1.1913760
       6437.1100       1.2466590
       6438.5800       1.2740940
       6440.0500       1.2681090
       6441.5200       1.2892340
       6442.9900       1.2602570
       6444.4600       1.2439330
       6445.9300       1.2731190
       6447.4000       1.2629570
       6448.8700       1.2427720
       6450.3400       1.2432390
       6451.8100       1.2385830
       6453.2800       1.2883340
       6454.7500       1.2951360
       6456.2200       1.2725120
       6457.6900       1.3202790
       6459.1600       1.3422990
       6460.6300       1.3069180
       6462.1000       1.3644250
       6463.5700       1.3740480
       6465.0400       1.3715050
       6466.5100       1.3071190
       6467.9800       1.3167900
       6469.4500       1.3211340
       6470.9200       1.3665470
       6472.3900       1.3594490
       6473.8600       1.3707570
       6475.3300       1.3637660
       6476.8000       1.3573820
       6478.2700       1.3847320
       6479.7400       1.3451070
       6481.2100       1.3123390
       6482.6800       1.2866280
       6484.1500       1.3069790
       6485.6200       1.2857190
       6487.0900       1.3140550
       6488.5600       1.3388630
       6490.0300       1.3415420
       6491.5000       1.3331370
       6492.9700       1.3105240
       6494.4400       1.3706480
       6495.9100       1.3890510
       6497.3800       1.3563070
       6498.8500       1.3500620
       6500.3200       1.3300850
       6501.7900       1.3259220
       6503.2600       1.3244310
       6504.7300       1.3661280
       6506.2000       1.3967880
       6507.6700       1.3303300
       6509.1400       1.3210600
       6510.6100       1.3395100
       6512.0800       1.3453290
       6513.5500       1.3216590
       6515.0200       1.2964060
       6516.4900       1.2881750
       6517.9600       1.2579790
       6519.4300       1.2754070
       6520.9000       1.2630730
       6522.3700       1.2495030
       6523.8400       1.2830980
       6525.3100       1.2392180
       6526.7800       1.2639100
       6528.2500       1.2757950
       6529.7200       1.2925040
       6531.1900       1.2745720
       6532.6600       1.2647010
       6534.1300       1.2459180
       6535.6000       1.2461500
       6537.0700       1.2477910
       6538.5400       1.2390380
       6540.0100       1.2540820
       6541.4800       1.2827600
       6542.9500       1.2703390
       6544.4200       1.2339630
       6545.8900       1.2315300
       6547.3600       1.2408820
       6548.8300       1.2445390
       6550.3000       1.2360600
       6551.7700       1.2354810
       6553.2400       1.2430000
       6554.7100       1.2430060
       6556.1800       1.2289870
       6557.6500       1.2344110
       6559.1200       1.2138260
       6560.5900       1.2341170
       6562.0600       1.2583460
       6563.5300       1.2524070
       6565.0000       1.2698740
       6566.4700       1.2668030
       6567.9400       1.2707930
       6569.4100       1.3114840
       6570.8800       1.2977440
       6572.3500       1.2563250
       6573.8200       1.2603770
       6575.2900       1.3135600
       6576.7600       1.3168750
       6578.2300       1.2991610
       6579.7000       1.2812390
       6581.1700       1.2887920
       6582.6400       1.3008240
       6584.1100       1.2379150
       6585.5800       1.2430930
       6587.0500       1.3070010
       6588.5200       1.3391300
       6589.9900       1.3914460
       6591.4600       1.4748230
       6592.9300       1.4882020
       6594.4000       1.4857020
       6595.8700       1.4221170
       6597.3400       1.2898520
       6598.8100       1.2583540
       6600.2800       1.2635960
       6601.7500       1.2416780
       6603.2201       1.2197460
       6604.6900       1.2219220
       6606.1600       1.2220500
       6607.6300       1.2127500
       6609.1000       1.2094860
       6610.5700       1.2219040
       6612.0400       1.2506910
       6613.5100       1.2699150
       6614.9800       1.2898660
       6616.4500       1.2754550
       6617.9200       1.2414000
       6619.3900       1.2217030
       6620.8600       1.1647820
       6622.3300       1.1758060
       6623.8000       1.2107110
       6625.2700       1.2043680
       6626.7400       1.1722890
       6628.2100       1.1703810
       6629.6800       1.1964700
       6631.1500       1.1992280
       6632.6200       1.1963410
       6634.0900       1.1570400
       6635.5600       1.1606960
       6637.0300       1.1548990
       6638.5000       1.1346350
       6639.9700       1.1351310
       6641.4400       1.1582430
       6642.9100       1.1379070
       6644.3800       1.1203360
       6645.8500       1.1622790
       6647.3200       1.1920080
       6648.7900       1.1521120
       6650.2600       1.0872200
       6651.7300       1.1193200
       6653.2000       1.1139970
       6654.6700       1.1044320
       6656.1400       1.1062700
       6657.6100       1.0889790
       6659.0800       1.0937510
       6660.5500       1.0694810
       6662.0200       1.0911890
       6663.4900       1.0895610
       6664.9600       1.0786890
       6666.4300       1.0806180
       6667.9000       1.0569370
       6669.3700       1.0805470
       6670.8400       1.0716690
       6672.3100       1.0780870
       6673.7800       1.0747740
       6675.2500       1.0796530
       6676.7200       1.1188480
       6678.1900       1.1272770
       6679.6600       1.1367170
       6681.1300       1.1212890
       6682.6000       1.1182260
       6684.0700       1.1222780
       6685.5400       1.1906500
       6687.0100       1.2399110
       6688.4800       1.0371270
       6689.9500       1.0719070
       6691.4200       1.0531330
       6692.8900       1.0460510
       6694.3600       1.0417750
       6695.8300       1.0475270
       6697.3000       1.0257200
       6698.7700       1.0152220
       6700.2400      0.99910230
       6701.7100       1.0174330
       6703.1800       1.0039590
       6704.6500       1.0342750
       6706.1200       1.0280720
       6707.5900       1.0182510
       6709.0600       1.0251690
       6710.5300       1.0413800
       6712.0000       1.0531920
       6713.4700       1.0308520
       6714.9400       1.0319640
       6716.4100       1.0197090
       6717.8800       1.0178560
       6719.3500       1.0015400
       6720.8200      0.98112250
       6722.2900      0.99456850
       6723.7600       1.0062400
       6725.2300      0.98924020
       6726.7000      0.98040030
       6728.1700       1.0106050
       6729.6400      0.95644990
       6731.1100      0.92468970
       6732.5800      0.93523610
       6734.0500      0.94643780
       6735.5200      0.95682530
       6736.9900      0.94682110
       6738.4600      0.90550230
       6739.9300      0.86872400
       6741.4000      0.89156850
       6742.8700      0.91871710
       6744.3400      0.94030710
       6745.8100      0.93083860
       6747.2800      0.88959720
       6748.7500      0.94065450
       6750.2200      0.95474120
       6751.6900      0.93962300
       6753.1600      0.91025970
       6754.6300      0.85116190
       6756.1000      0.84199350
       6757.5700      0.87494650
       6759.0400      0.90435390
       6760.5100      0.92598310
       6761.9800      0.94482030
       6763.4500      0.95014350
       6764.9200      0.94696280
       6766.3900      0.91967030
       6767.8600      0.89746400
       6769.3300      0.86673680
       6770.8000      0.88207670
       6772.2700      0.92361510
       6773.7400      0.90011000
       6775.2100      0.89271310
       6776.6800      0.91331090
       6778.1500      0.87825800
       6779.6200      0.85219610
       6781.0900      0.85025380
       6782.5600      0.88632830
       6784.0300      0.88857840
       6785.5000      0.85921630
       6786.9700      0.88986720
       6788.4400      0.93238840
       6789.9100      0.90593440
       6791.3800      0.88845640
       6792.8500      0.89122830
       6794.3200      0.90473810
       6795.7900      0.94508350
       6797.2600      0.90218040
       6798.7300      0.90213590
       6800.2000      0.94032480
       6801.6700      0.91408220
       6803.1400      0.87713250
       6804.6100      0.86426990
       6806.0800      0.92151650
       6807.5500      0.93233820
       6809.0200      0.89630760
       6810.4900      0.91955250
       6811.9600      0.92819260
       6813.4300      0.93573930
       6814.9000      0.90543690
       6816.3700      0.88033430
       6817.8400      0.92951110
       6819.3100      0.94549750
       6820.7800      0.92613600
       6822.2500      0.90512820
       6823.7200      0.88492470
       6825.1900      0.90192780
       6826.6600      0.92616040
       6828.1300      0.90308310
       6829.6000      0.86796360
       6831.0700      0.88326830
       6832.5400      0.88745960
       6834.0100      0.84604080
       6835.4800      0.86941780
       6836.9500      0.90238630
       6838.4200      0.90646880
       6839.8900      0.91194870
       6841.3600      0.87811300
       6842.8300      0.86871900
       6844.3000      0.90399680
       6845.7700      0.88473540
       6847.2400      0.84032720
       6848.7100      0.85625150
       6850.1800      0.89602170
       6851.6500      0.88317730
       6853.1200      0.84469740
       6854.5900      0.84955880
       6856.0600      0.84357120
       6857.5300      0.82701860
       6859.0000      0.86081440
       6860.4700      0.82018640
       6861.9400      0.77004560
       6863.4100      0.79055590
       6864.8800      0.78036690
       6866.3500      0.78554860
       6867.8200      0.83865590
       6869.2900      0.83451970
       6870.7600      0.77117950
       6872.2300      0.76740500
       6873.7000      0.78345630
       6875.1700      0.76668360
       6876.6400      0.77823240
       6878.1100      0.79533310
       6879.5800      0.78857440
       6881.0500      0.77687290
       6882.5200      0.75970570
       6883.9900      0.79881940
       6885.4600      0.80862310
       6886.9300      0.79870380
       6888.4000      0.78243890
       6889.8700      0.76872300
       6891.3400      0.77805430
       6892.8100      0.78696200
       6894.2800      0.78063350
       6895.7500      0.77513720
       6897.2200      0.74965430
       6898.6900      0.74895460
       6900.1600      0.75348760
       6901.6300      0.73546120
       6903.1000      0.74920430
       6904.5700      0.77974160
       6906.0400      0.75051770
       6907.5100      0.72414180
       6908.9800      0.73814370
       6910.4500      0.75089730
       6911.9200      0.74210630
       6913.3900      0.77076320
       6914.8600      0.74814390
       6916.3301      0.72184390
       6917.8000      0.68880840
       6919.2700      0.68481780
       6920.7400      0.68575900
       6922.2100      0.73092700
       6923.6800      0.74545820
       6925.1500      0.72652180
       6926.6200      0.73623590
       6928.0900      0.73279100
       6929.5600      0.71257830
       6931.0300      0.72804010
       6932.5000      0.75196230
       6933.9700      0.77194300
       6935.4400      0.80394060
       6936.9100      0.75785160
       6938.3800      0.75825070
       6939.8500      0.84401950
       6941.3200      0.82547830
       6942.7900      0.85047300
       6944.2600      0.85266810
       6945.7300      0.80785990
       6947.2000      0.79883180
       6948.6700      0.80637220
       6950.1400      0.80135940
       6951.6100      0.81327280
       6953.0800      0.87493090
       6954.5500      0.88388830
       6956.0200      0.85229960
       6957.4900      0.82061510
       6958.9600      0.81309410
       6960.4300      0.89003890
       6961.9000      0.89913770
       6963.3700      0.88662430
       6964.8400      0.88070090
       6966.3100      0.83407410
       6967.7800      0.84788350
       6969.2500      0.90299610
       6970.7200      0.87347740
       6972.1900      0.85261150
       6973.6600      0.90739520
       6975.1300      0.87477690
       6976.6000      0.89231250
       6978.0700      0.88463590
       6979.5400      0.85361430
       6981.0100      0.83393050
       6982.4800      0.86327580
       6983.9500      0.83065250
       6985.4200      0.85666700
       6986.8900      0.90549770
       6988.3600      0.89132810
       6989.8300      0.88528230
       6991.3000      0.88205700
       6992.7700      0.88260440
       6994.2400      0.92184300
       6995.7100      0.93981750
       6997.1800      0.91356220
       6998.6500      0.96534620
       7000.1200      0.97019500
       7001.5900      0.98229710
       7003.0600      0.95515880
       7004.5300      0.91204010
       7006.0000      0.91251890
       7007.4700      0.95125100
       7008.9400      0.94193350
       7010.4100      0.95569190
       7011.8800      0.95972980
       7013.3500      0.91273440
       7014.8200       1.0447280
       7016.2900       1.0203270
       7017.7600      0.97147830
       7019.2300      0.96042380
       7020.7000      0.94202140
       7022.1700      0.94283460
       7023.6400      0.95014180
       7025.1100      0.91699080
       7026.5800      0.94344470
       7028.0500      0.97962730
       7029.5200      0.97430410
       7030.9900      0.92108860
       7032.4600      0.92223330
       7033.9300      0.96223540
       7035.4000      0.95137250
       7036.8700      0.95116190
       7038.3400      0.94718420
       7039.8100      0.94999690
       7041.2800      0.94869850
       7042.7500      0.93897530
       7044.2200      0.93798540
       7045.6900      0.92821590
       7047.1600      0.93984920
       7048.6300      0.92015770
       7050.1000      0.84751190
       7051.5700      0.88651000
       7053.0400      0.85958530
       7054.5100      0.88390000
       7055.9800      0.92670660
       7057.4500      0.88496160
       7058.9200      0.91083400
       7060.3900      0.91396800
       7061.8600      0.90716620
       7063.3300      0.88853350
       7064.8000      0.88064560
       7066.2700      0.91387620
       7067.7400      0.91845180
       7069.2100      0.91196260
       7070.6800      0.89662390
       7072.1500      0.85964180
       7073.6200      0.88350950
       7075.0900      0.90947510
       7076.5600      0.83321980
       7078.0300      0.83339120
       7079.5000      0.88562320
       7080.9700      0.88934490
       7082.4400      0.89126630
       7083.9100      0.90558910
       7085.3800      0.89088380
       7086.8500      0.84980640
       7088.3200      0.86985890
       7089.7900      0.86102800
       7091.2600      0.86785010
       7092.7300      0.91313710
       7094.2000      0.91245250
       7095.6700      0.89796220
       7097.1400      0.91253640
       7098.6100      0.88463930
       7100.0800      0.88417120
       7101.5500      0.90459080
       7103.0200      0.86266680
       7104.4900      0.85612850
       7105.9600      0.85378220
       7107.4300      0.82352150
       7108.9000      0.84059500
       7110.3700      0.88494860
       7111.8400      0.88821140
       7113.3100      0.87754310
       7114.7800      0.86935610
       7116.2500      0.91094350
       7117.7200      0.93468880
       7119.1900      0.86895920
       7120.6600      0.87747930
       7122.1300      0.89890710
       7123.6000      0.87402270
       7125.0700      0.87457670
       7126.5400      0.88017280
       7128.0100      0.90493130
       7129.4800      0.91658690
       7130.9500      0.89740250
       7132.4200      0.87690140
       7133.8900      0.88441060
       7135.3600      0.85870130
       7136.8300      0.82722440
       7138.3000      0.88527360
       7139.7700      0.90939900
       7141.2400      0.86495580
       7142.7100      0.85435460
       7144.1800      0.85690570
       7145.6500      0.84655710
       7147.1200      0.89096430
       7148.5900      0.90925330
       7150.0600      0.88140390
       7151.5300      0.85744000
       7153.0000      0.86430960
       7154.4700      0.94348660
       7155.9400      0.93877840
       7157.4100      0.89504430
       7158.8800      0.95516070
       7160.3500      0.96757570
       7161.8200      0.90586850
       7163.2900      0.91897050
       7164.7600      0.95571350
       7166.2300      0.99404540
       7167.7000       1.0126450
       7169.1700      0.94760670
       7170.6400      0.93814430
       7172.1100      0.96064980
       7173.5800      0.98951550
       7175.0500      0.93147480
       7176.5200      0.93964090
       7177.9900       1.0108400
       7179.4600      0.97001340
       7180.9300      0.99953330
       7182.4000       1.0308710
       7183.8700       1.0541850
       7185.3400       1.0461540
       7186.8100      0.99634830
       7188.2800       1.0108540
       7189.7500       1.0296860
       7191.2200       1.0090080
       7192.6900       1.0829500
       7194.1600       1.0704400
       7195.6300       1.0560140
       7197.1000       1.0583480
       7198.5700       1.0618560
       7200.0400       1.0609660
       7201.5100       1.0322250
       7202.9800       1.0364140
       7204.4500       1.0534860
       7205.9200       1.0134020
       7207.3900      0.99079400
       7208.8600       1.0446960
       7210.3300      0.99468930
       7211.8000      0.95563540
       7213.2700      0.99893850
       7214.7400      0.98826720
       7216.2100      0.97223090
       7217.6800      0.97499600
       7219.1500       1.0131040
       7220.6200       1.0070510
       7222.0900       1.0212200
       7223.5600      0.99202940
       7225.0300       1.0177940
       7226.5000       1.0367360
       7227.9700       1.0256020
       7229.4401       1.0217070
       7230.9100       1.0345910
       7232.3800       1.1003150
       7233.8500       1.0794520
       7235.3200       1.0819510
       7236.7900       1.0025760
       7238.2600       1.0296850
       7239.7300       1.0571060
       7241.2000       1.0869340
       7242.6700       1.0483770
       7244.1400       1.0575500
       7245.6100       1.0542270
       7247.0800       1.1052020
       7248.5500       1.0522040
       7250.0200       1.0482650
       7251.4900       1.0841090
       7252.9600       1.0991280
       7254.4300       1.1077090
       7255.9000       1.1206890
       7257.3700       1.1982270
       7258.8400       1.1556080
       7260.3100       1.1258770
       7261.7800       1.1570530
       7263.2500       1.1377650
       7264.7200       1.1826280
       7266.1900       1.1431970
       7267.6600       1.1473770
       7269.1300       1.1828680
       7270.6000       1.1572460
       7272.0700       1.1709990
       7273.5400       1.1935630
       7275.0100       1.2231730
       7276.4800       1.2477020
       7277.9500       1.2721970
       7279.4200       1.1602780
       7280.8900       1.0642000
       7282.3600       1.1498760
       7283.8300       1.1448860
       7285.3000       1.1346360
       7286.7700       1.1675400
       7288.2400       1.1734240
       7289.7100       1.1744420
       7291.1800       1.1905170
       7292.6500       1.1657360
       7294.1200       1.1925950
       7295.5900       1.1911860
       7297.0600       1.1559500
       7298.5300       1.2440690
       7300.0000       1.2574930
       7301.4700       1.3182770
       7302.9400       1.3130640
       7304.4100       1.2683890
       7305.8800       1.2124460
       7307.3500       1.2893850
       7308.8200       1.2809690
       7310.2900       1.2261930
       7311.7600       1.3334920
       7313.2300       1.2762820
       7314.7000       1.2578980
       7316.1700       1.3460700
       7317.6400       1.3589270
       7319.1100       1.2768900
       7320.5800       1.2576450
       7322.0500       1.2182320
       7323.5200       1.1901770
       7324.9900       1.2089210
       7326.4600       1.2334130
       7327.9300       1.2579530
       7329.4000       1.2146800
       7330.8700       1.1884110
       7332.3400       1.1700280
       7333.8100       1.2115940
       7335.2800       1.1832180
       7336.7500       1.1695410
       7338.2200       1.2039610
       7339.6900       1.1890010
       7341.1600       1.2401610
       7342.6300       1.2154740
       7344.1000       1.2229150
       7345.5700       1.2022430
       7347.0400       1.2101390
       7348.5100       1.2561910
       7349.9800       1.2597400
       7351.4500       1.2190720
       7352.9200       1.2092290
       7354.3900       1.1851840
       7355.8600       1.2539670
       7357.3300       1.2409760
       7358.8000       1.1968710
       7360.2700       1.1589160
       7361.7400       1.2214270
       7363.2100       1.1852760
       7364.6800       1.1319760
       7366.1500       1.1175770
       7367.6200       1.0915080
       7369.0900       1.0921130
       7370.5600       1.1129640
       7372.0300       1.0799460
       7373.5000       1.0935320
       7374.9700       1.0670670
       7376.4400       1.1072640
       7377.9100       1.0982820
       7379.3800       1.0837600
       7380.8500       1.1297890
       7382.3200       1.1268180
       7383.7900       1.0826800
       7385.2600       1.0955650
       7386.7300       1.0842180
       7388.2000       1.0659110
       7389.6700       1.1153820
       7391.1400       1.0996200
       7392.6100       1.0521800
       7394.0800       1.0587880
       7395.5500       1.0305050
       7397.0200       1.0121230
       7398.4900       1.0448510
       7399.9600       1.0825660
       7401.4300       1.0730490
       7402.9000       1.0567550
       7404.3700       1.0543630
       7405.8400       1.0691930
       7407.3100       1.1186940
       7408.7800       1.1034040
       7410.2500       1.0864990
       7411.7200       1.0647640
       7413.1900       1.0658740
       7414.6600       1.1050800
       7416.1300       1.0383300
       7417.6000       1.1287700
       7419.0700       1.0342240
       7420.5400      0.97027560
