Units are: observed wavelength (Ang), observed flux (10^-15 erg/s/cm^2/Ang)
       4023.4361      0.15672520
       4024.1550     -0.60101190
       4024.8739      -2.2387900
       4025.5928     -0.76049020
       4026.3119     0.044793060
       4027.0308      -2.9683080
       4027.7497     -0.31693040
       4028.4686     -0.10215010
       4029.1876       1.5940380
       4029.9065      0.28519400
       4030.6255       2.4745190
       4031.3445     -0.65549220
       4032.0634     0.077804740
       4032.7823     -0.62675450
       4033.5012      0.12887800
       4034.2203      -3.4005470
       4034.9392      0.36116280
       4035.6581      0.79825450
       4036.3770     -0.18801600
       4037.0960       1.7383250
       4037.8149      0.33955120
       4038.5339       1.6913360
       4039.2528      -1.0817480
       4039.9718     -0.32817130
       4040.6907       1.4664250
       4041.4096      0.73632360
       4042.1287     -0.18345370
       4042.8476      0.52407640
       4043.5665       2.1948930
       4044.2854       2.6451780
       4045.0044    -0.072007830
       4045.7233      -1.3382490
       4046.4423      0.96336290
       4047.1612    -0.077690420
       4047.8802      0.42429460
       4048.5991      -1.6889720
       4049.3180     -0.37554540
       4050.0370     -0.35846730
       4050.7560     -0.11809350
       4051.4749    -0.090036330
       4052.1938       1.9095280
       4052.9128       1.5122390
       4053.6317     -0.46017640
       4054.3507      0.79657090
       4055.0696     -0.64596370
       4055.7886      -1.2134780
       4056.5075     -0.90618500
       4057.2264       1.8608800
       4057.9454      -1.1034870
       4058.6644      0.20429100
       4059.3833       1.7035620
       4060.1022     -0.61101390
       4060.8211       3.3829130
       4061.5401       1.3206290
       4062.2591     -0.74049380
       4062.9780     -0.80491290
       4063.6970     -0.90433830
       4064.4159      -1.5978970
       4065.1348     -0.87162380
       4065.8538     -0.61511060
       4066.5728      0.58839000
       4067.2917      0.75973310
       4068.0106       1.1769570
       4068.7295       1.1151070
       4069.4485    -0.061605330
       4070.1675     0.045352910
       4070.8864      -1.2039320
       4071.6053       1.5215570
       4072.3243       1.0507170
       4073.0432       3.0702960
       4073.7622     -0.80034440
       4074.4812      0.42759100
       4075.2001     -0.57597040
       4075.9190    -0.080821400
       4076.6379      -2.0376260
       4077.3569      -2.4713120
       4078.0759      0.69183860
       4078.7948    -0.023428900
       4079.5137       1.2318740
       4080.2327   -0.0060868230
       4080.9516       2.1610830
       4081.6706      0.11163590
       4082.3895       1.1213690
       4083.1085       1.0416160
       4083.8274     -0.44318420
       4084.5463     -0.70383610
       4085.2653      -1.1293110
       4085.9843       1.0645000
       4086.7032     -0.44009540
       4087.4221      0.54632780
       4088.1411     -0.72838680
       4088.8600       1.2669220
       4089.5790      0.22083470
       4090.2979      0.50432780
       4091.0169     -0.84613950
       4091.7358      0.40118270
       4092.4547     -0.64833260
       4093.1736     -0.77241230
       4093.8927      0.76043170
       4094.6116     -0.15367050
       4095.3305       1.1797520
       4096.0495     0.068032680
       4096.7684       3.3211560
       4097.4874       1.0767420
       4098.2063      0.29974380
       4098.9253      0.94367360
       4099.6442       2.9211910
       4100.3631       1.4632790
       4101.0820      0.18549160
       4101.8011     0.066756220
       4102.5200     -0.30727830
       4103.2389     -0.40149880
       4103.9578      0.18074530
       4104.6768       2.2196270
       4105.3958      0.61625420
       4106.1147       1.1716370
       4106.8337      -1.7862840
       4107.5526      -1.5744060
       4108.2715      -2.4922880
       4108.9904      0.37166220
       4109.7095      0.78693820
       4110.4284      -1.4087220
       4111.1473     -0.76953120
       4111.8662      -1.6896400
       4112.5852       1.4677340
       4113.3042     -0.90821460
       4114.0231     -0.16687520
       4114.7420      -1.6133660
       4115.4610      0.60142270
       4116.1799     -0.76843790
       4116.8988      0.38590590
       4117.6179      0.11110290
       4118.3368      -1.5341730
       4119.0557     -0.35516480
       4119.7746       1.0702230
       4120.4936      0.32513870
       4121.2126      0.17791730
       4121.9315     -0.18589490
       4122.6504     -0.94544670
       4123.3694     -0.70427570
       4124.0883     -0.32995380
       4124.8072       1.4300310
       4125.5262      -1.2467290
       4126.2452      0.20594860
       4126.9641      0.43253220
       4127.6830     -0.36123650
       4128.4020      0.39912360
       4129.1210     -0.89728880
       4129.8399     0.081897330
       4130.5588     -0.43055940
       4131.2778      0.54382160
       4131.9967     -0.99379150
       4132.7156      0.50425690
       4133.4346     -0.21093850
       4134.1536      0.98730070
       4134.8725     -0.49216810
       4135.5914      0.11770960
       4136.3103     -0.54792970
       4137.0294     -0.83156780
       4137.7483       2.0990870
       4138.4672       1.0508710
       4139.1862       1.2790700
       4139.9051      0.90663600
       4140.6240     -0.25239810
       4141.3430     -0.61172380
       4142.0620      0.19443050
       4142.7809     -0.45959990
       4143.4998       1.5845010
       4144.2187     -0.60344810
       4144.9378     -0.55709990
       4145.6567      0.61857070
       4146.3756      0.97644070
       4147.0945    -0.022889980
       4147.8135     0.057929230
       4148.5324       1.7916390
       4149.2514     -0.70811360
       4149.9704     -0.38555750
       4150.6893     -0.69846940
       4151.4082       1.3547520
       4152.1271     -0.71209120
       4152.8462     -0.30782670
       4153.5651  -0.00036055110
       4154.2840      0.61150580
       4155.0029      0.22569930
       4155.7219     -0.22122250
       4156.4408      0.53279470
       4157.1598    -0.048304460
       4157.8787      0.28330000
       4158.5977    -0.046649810
       4159.3166      0.19505640
       4160.0355      -1.2325080
       4160.7544     -0.70222310
       4161.4735      -1.1389770
       4162.1924     0.065940710
       4162.9113     -0.68028950
       4163.6303     -0.83044030
       4164.3492     -0.68016120
       4165.0682     -0.30915600
       4165.7871     -0.52529430
       4166.5061      -1.1363340
       4167.2250     -0.92848840
       4167.9439      -1.2044840
       4168.6628    -0.051709610
       4169.3819    -0.037655210
       4170.1008      0.10050550
       4170.8197     -0.55835940
       4171.5386      0.41442900
       4172.2576      0.56345840
       4172.9766      0.30854470
       4173.6955       1.0264430
       4174.4145      0.81333420
       4175.1334     -0.24176540
       4175.8523     -0.31904370
       4176.5712     0.010675920
       4177.2903      0.18850550
       4178.0092      0.77110990
       4178.7281    -0.077258660
       4179.4470    -0.028514080
       4180.1660      0.97858200
       4180.8850      0.60035250
       4181.6039   -0.0066639400
       4182.3228      0.97244690
       4183.0418       1.1999960
       4183.7607      0.23776530
       4184.4796     -0.27298060
       4185.1987     -0.58219360
       4185.9176      0.40267270
       4186.6365     -0.17565800
       4187.3554      0.67661710
       4188.0744     -0.31890510
       4188.7934      0.59175600
       4189.5123      0.33234340
       4190.2312      0.91090260
       4190.9502     -0.68752980
       4191.6691     -0.19697950
       4192.3880      0.74516380
       4193.1070      0.37983870
       4193.8260     0.025950120
       4194.5449      0.37428400
       4195.2638      0.61882140
       4195.9828     -0.58512040
       4196.7018      0.55631130
       4197.4207     -0.35525680
       4198.1396      0.62702840
       4198.8586      0.28863580
       4199.5775      0.34065530
       4200.2964     -0.57102630
       4201.0154    -0.070265970
       4201.7344      0.83549640
       4202.4533      0.46349110
       4203.1722     -0.17787330
       4203.8911    -0.053922240
       4204.6102      0.91606790
       4205.3291      0.40974600
       4206.0480      0.58453440
       4206.7670     -0.77283680
       4207.4859      0.40996000
       4208.2048     -0.65535960
       4208.9238     -0.33139690
       4209.6428     -0.52390320
       4210.3617      0.26454410
       4211.0806      0.44253490
       4211.7995      0.11312100
       4212.5186      0.11243500
       4213.2375     -0.22706830
       4213.9564      0.41705740
       4214.6753       1.1277530
       4215.3943      0.51191490
       4216.1132    -0.060349850
       4216.8322      0.49210770
       4217.5512     0.073577330
       4218.2701     -0.36608080
       4218.9890     -0.88808560
       4219.7079      0.11975250
       4220.4270     -0.42881800
       4221.1459      0.42305650
       4221.8648      0.71888100
       4222.5837      0.24927010
       4223.3027     -0.67774520
       4224.0216     -0.72905160
       4224.7406      0.24603950
       4225.4595    -0.043060270
       4226.1785      0.42485780
       4226.8974      0.52409410
       4227.6163      0.28196490
       4228.3354      0.61569380
       4229.0543    -0.020858120
       4229.7732     -0.78018370
       4230.4921      0.23435140
       4231.2111     0.085704860
       4231.9300    -0.077684520
       4232.6490      0.75326740
       4233.3679      0.33778640
       4234.0869     0.087390040
       4234.8058    -0.041326750
       4235.5247      0.11206620
       4236.2437     -0.51208740
       4236.9627     -0.42491960
       4237.6816      0.31596830
       4238.4005       1.4900340
       4239.1195      0.63682250
       4239.8384      0.83020800
       4240.5574      0.11140250
       4241.2763     -0.34913550
       4241.9953     0.049577440
       4242.7142     0.030886860
       4243.4331     -0.24826200
       4244.1521      0.38379150
       4244.8711      0.28886580
       4245.5900      0.40709420
       4246.3089      0.98864860
       4247.0278      0.10275550
       4247.7468      0.88473130
       4248.4658     -0.29791230
       4249.1847     0.045448030
       4249.9037      0.57586140
       4250.6226      0.56371410
       4251.3415     -0.71901550
       4252.0605      0.72518420
       4252.7795    -0.097314400
       4253.4984      0.11231240
       4254.2173     0.063236280
       4254.9362      0.62004240
       4255.6552      0.57893200
       4256.3742     -0.14094060
       4257.0931      0.47436780
       4257.8120     0.058512830
       4258.5310      0.23554600
       4259.2499      0.16534020
       4259.9689      0.54259340
       4260.6879     -0.10298680
       4261.4068     0.073772590
       4262.1257      0.29825020
       4262.8446      0.50903890
       4263.5636     -0.45263430
       4264.2826     -0.33910110
       4265.0015      0.22625100
       4265.7204     -0.11809580
       4266.4394     -0.51458810
       4267.1583     0.046316900
       4267.8773      0.97444620
       4268.5962      0.90536330
       4269.3152      0.72695260
       4270.0341     -0.21924050
       4270.7530      0.63298210
       4271.4720      0.33301940
       4272.1910      0.49580270
       4272.9099    -0.068035920
       4273.6288       1.1140980
       4274.3478      0.26081700
       4275.0667      0.65821710
       4275.7857      0.17156570
       4276.5046     -0.19730260
       4277.2236     -0.33726080
       4277.9425     -0.25198010
       4278.6614     -0.18286710
       4279.3803      0.56803110
       4280.0994      0.23671560
       4280.8183     0.093091800
       4281.5372      0.21677170
       4282.2562      0.39046790
       4282.9751       1.3511930
       4283.6941      0.54138480
       4284.4130      0.85502300
       4285.1320      0.44219700
       4285.8509      0.62835740
       4286.5698     -0.63848890
       4287.2887      0.45948000
       4288.0078      0.69132510
       4288.7267      0.59748880
       4289.4456     -0.23179360
       4290.1645     -0.12618190
       4290.8835      0.94433610
       4291.6025      0.44196170
       4292.3214      0.21647170
       4293.0404     -0.48348660
       4293.7593      0.91694320
       4294.4782     0.024428510
       4295.1971      0.57984020
       4295.9162     -0.23632430
       4296.6351      0.73171680
       4297.3540   0.00042304610
       4298.0729      0.31372240
       4298.7919      0.59139590
       4299.5109      0.54880920
       4300.2298      0.77008590
       4300.9487      0.51350570
       4301.6677       1.0782020
       4302.3866      0.91993260
       4303.1055      0.69435020
       4303.8246     -0.50917850
       4304.5435   -0.0059693160
       4305.2624      0.73994710
       4305.9813      0.16321280
       4306.7003      0.11485660
       4307.4193      0.82687290
       4308.1382      0.63839460
       4308.8571      0.18942090
       4309.5761   0.00030165650
       4310.2950      0.97481420
       4311.0139      0.17055890
       4311.7329      0.40945170
       4312.4519      0.78267910
       4313.1708      0.34242450
       4313.8897       1.0695340
       4314.6087      0.39968630
       4315.3277      0.48017850
       4316.0466      0.70432800
       4316.7655      0.61972080
       4317.4845     0.091958850
       4318.2034     -0.14353130
       4318.9223      0.11524900
       4319.6413      0.35852110
       4320.3603      0.26474760
       4321.0792      0.37611850
       4321.7981     -0.21075920
       4322.5170    -0.075688730
       4323.2361      0.12835800
       4323.9550      0.11424400
       4324.6739      0.69210650
       4325.3929    -0.024350110
       4326.1118     0.067439730
       4326.8307      0.32786620
       4327.5497      0.20802110
       4328.2687      0.26511740
       4328.9876      0.10355220
       4329.7065      0.23484540
       4330.4254       1.1292150
       4331.1445      0.28171320
       4331.8634      0.64680250
       4332.5823      0.84799250
       4333.3012      0.67138300
       4334.0202      0.48600500
       4334.7391      0.40958480
       4335.4581      0.27542730
       4336.1771      0.30747090
       4336.8960     0.050920480
       4337.6149      0.47182050
       4338.3338      0.87780130
       4339.0529      0.42374790
       4339.7718      0.73324110
       4340.4907    -0.042016420
       4341.2096      0.10478330
       4341.9286      0.41121000
       4342.6475     -0.15967890
       4343.3665     -0.33902060
       4344.0854      0.90352550
       4344.8044     0.082653770
       4345.5233      0.42420760
       4346.2422      0.58216970
       4346.9613      0.65118960
       4347.6802      0.22627980
       4348.3991      0.45079170
       4349.1180      0.32353570
       4349.8370      0.81118440
       4350.5559      0.54646150
       4351.2749      0.61578920
       4351.9938       1.3004330
       4352.7128      0.77507540
       4353.4317      0.67127270
       4354.1506      0.83874380
       4354.8696      0.65006460
       4355.5886      0.37950190
       4356.3075      0.55078050
       4357.0264      0.35976140
       4357.7453      0.41443140
       4358.4643      0.73036970
       4359.1833     0.054674840
       4359.9022     -0.22959570
       4360.6212      0.50381840
       4361.3401      0.39829600
       4362.0590      0.73556980
       4362.7780      0.34348240
       4363.4970      0.36776370
       4364.2159      0.36059030
       4364.9348      0.57724180
       4365.6537      0.64864030
       4366.3727      0.42940280
       4367.0917      0.78296870
       4367.8106      0.51611780
       4368.5295      0.34032840
       4369.2485      0.28814540
       4369.9674      0.60506540
       4370.6864      0.41229020
       4371.4054      0.83060250
       4372.1243      0.62542390
       4372.8432      0.96447720
       4373.5621      0.29416550
       4374.2811      0.68093150
       4375.0001      0.29992180
       4375.7190     0.076092900
       4376.4379     -0.14547260
       4377.1569     -0.86548020
       4377.8758      -1.2720320
       4378.5948     -0.20559210
       4379.3137      0.30905200
       4380.0327    -0.092888760
       4380.7516      0.66137680
       4381.4705      0.89944460
       4382.1895      0.71707190
       4382.9085      0.76879210
       4383.6274      0.72759970
       4384.3463      0.41262630
       4385.0653      0.75555650
       4385.7842   -0.0040326270
       4386.5032      0.13463340
       4387.2221     -0.50971150
       4387.9411      0.41526490
       4388.6600      0.51337740
       4389.3789      0.58755410
       4390.0978      0.44816010
       4390.8169      0.96684590
       4391.5358      0.71779830
       4392.2547      0.12428880
       4392.9737      0.52280150
       4393.6926      0.38294330
       4394.4116     0.074854310
       4395.1305      0.18091320
       4395.8495       1.0928640
       4396.5684      0.74870380
       4397.2873       1.0753780
       4398.0062      0.84308400
       4398.7253       1.0221760
       4399.4442      0.64360790
       4400.1631      0.80922350
       4400.8820      0.19325180
       4401.6010      0.61343810
       4402.3200     0.033444060
       4403.0389      0.56401550
       4403.7579      0.29707790
       4404.4768      0.58066250
       4405.1957      0.73368790
       4405.9146      0.53530680
       4406.6337      0.53271070
       4407.3526      0.31795650
       4408.0715      0.66412140
       4408.7904      0.30161650
       4409.5094      0.45214840
       4410.2284      0.29128210
       4410.9473      0.20658060
       4411.6662     -0.24533610
       4412.3852      0.21495510
       4413.1041      0.45511440
       4413.8230      0.53870370
       4414.5421     -0.16776800
       4415.2610      0.63909060
       4415.9799      0.30471370
       4416.6988      0.50217240
       4417.4178      0.57471910
       4418.1368      0.35508420
       4418.8557     0.054776220
       4419.5746      0.45362480
       4420.2936      0.68024410
       4421.0125      0.74982990
       4421.7314      0.46519070
       4422.4504      0.17786180
       4423.1694      0.15853820
       4423.8883      0.51180030
       4424.6072      0.40317970
       4425.3262     0.092524200
       4426.0452      0.73936230
       4426.7641      0.71887520
       4427.4830      0.45634650
       4428.2020      0.75198980
       4428.9209      0.87442290
       4429.6398      0.45597120
       4430.3588      0.74784270
       4431.0778      0.80444270
       4431.7967      0.99290920
       4432.5156      0.40985580
       4433.2345      0.31370260
       4433.9536     0.072972950
       4434.6725      0.25098490
       4435.3914      0.64078740
       4436.1104      0.45057700
       4436.8293      0.50132100
       4437.5482      0.52205130
       4438.2672      0.61919840
       4438.9862      0.67187070
       4439.7051      0.27804710
       4440.4240      0.37841390
       4441.1429      0.32105410
       4441.8620      0.20746900
       4442.5809      0.53322760
       4443.2998      0.29666120
       4444.0187      0.82973530
       4444.7377     0.084047330
       4445.4566      0.30449320
       4446.1756      0.76729080
       4446.8946      0.89511250
       4447.6135      0.83749620
       4448.3324      0.34074300
       4449.0513      0.32836240
       4449.7704      0.84255080
       4450.4893      0.62438190
       4451.2082      0.40362580
       4451.9271      0.36502920
       4452.6461       1.2508910
       4453.3650      0.82345870
       4454.0840      0.74306020
       4454.8029      0.68287140
       4455.5219      0.25496210
       4456.2408      0.42146760
       4456.9597      0.53257690
       4457.6787      0.31016890
       4458.3977      0.22569870
       4459.1166      0.29179940
       4459.8355      0.31733630
       4460.5545      0.41443000
       4461.2734      0.81722190
       4461.9924      0.65623470
       4462.7113      0.44741530
       4463.4303      0.79946890
       4464.1492      0.10628380
       4464.8681      0.35315090
       4465.5870      0.19627600
       4466.3061      0.72651260
       4467.0250     0.071475340
       4467.7439      0.54763430
       4468.4629      0.52222480
       4469.1818      0.36636070
       4469.9008      0.88438920
       4470.6197      0.90292570
       4471.3387      0.54086720
       4472.0576      0.53306740
       4472.7765      0.75233420
       4473.4954      0.97701040
       4474.2145      0.68370680
       4474.9334      0.68447740
       4475.6523      0.60625760
       4476.3712      0.37862160
       4477.0902      0.97543270
       4477.8092       1.2463180
       4478.5281       1.1056180
       4479.2471      0.42300380
       4479.9660      0.47203530
       4480.6849      0.60785320
       4481.4038      0.96633190
       4482.1229      0.43014990
       4482.8418       1.0213310
       4483.5607      0.56052730
       4484.2796      0.66672410
       4484.9986      0.93218570
       4485.7176      0.88395440
       4486.4365      0.97060010
       4487.1554      0.98206300
       4487.8744      0.92782380
       4488.5933       1.1322000
       4489.3122      0.61049070
       4490.0313      0.51027120
       4490.7502      0.82188270
       4491.4691      0.88980320
       4492.1880      0.95579850
       4492.9070      0.56043210
       4493.6260      0.84321790
       4494.3449      0.98980910
       4495.0638      0.70482090
       4495.7828      0.64058720
       4496.5017      0.95649690
       4497.2206      0.67185120
       4497.9396       1.0020090
       4498.6586      0.88171840
       4499.3775      0.93457370
       4500.0964      0.57222890
       4500.8154       1.1573970
       4501.5344      0.84966110
       4502.2533       1.0729990
       4502.9722       1.0295410
       4503.6912      0.93907740
       4504.4101       1.0868390
       4505.1290       1.0195030
       4505.8480       1.0443400
       4506.5670       1.1743480
       4507.2859      0.74652480
       4508.0048      0.83866770
       4508.7237       1.1003150
       4509.4428      0.90507960
       4510.1617       1.2872600
       4510.8806      0.87922600
       4511.5996      0.80248230
       4512.3185      0.80592260
       4513.0374       1.0132230
       4513.7564      0.69555480
       4514.4754      0.73899100
       4515.1943      0.48988100
       4515.9132      0.62871080
       4516.6321      0.98901970
       4517.3512      0.66868560
       4518.0701      0.86539000
       4518.7890       1.1782090
       4519.5079       1.1751820
       4520.2269       1.3242230
       4520.9458       1.1820000
       4521.6648      0.88887480
       4522.3838      0.86531360
       4523.1027       1.4574470
       4523.8216       1.2804040
       4524.5405      0.64997100
       4525.2596      0.79691280
       4525.9785      0.63806840
       4526.6974      0.50862230
       4527.4163      0.85168530
       4528.1353       1.0922830
       4528.8542       1.0052090
       4529.5732       1.1510700
       4530.2921       1.6117970
       4531.0111       1.4811520
       4531.7300      0.80435450
       4532.4489      0.96893340
       4533.1680       1.0068450
       4533.8869      0.98262310
       4534.6058       1.0142160
       4535.3247       1.1091110
       4536.0437       1.2175290
       4536.7626       1.4010960
       4537.4816      0.84604780
       4538.2005       1.3710760
       4538.9195       1.1702920
       4539.6384       1.3610210
       4540.3573       1.2133410
       4541.0763       1.1705600
       4541.7953      0.85348240
       4542.5142       1.4481070
       4543.2331       1.3415080
       4543.9521       1.2406010
       4544.6710      0.88703910
       4545.3900       1.0479250
       4546.1089      0.98520010
       4546.8279       1.3192950
       4547.5468       1.3878360
       4548.2657       1.3895050
       4548.9847       1.3525870
       4549.7037       1.2134730
       4550.4226       1.4993010
       4551.1415       1.2951360
       4551.8604       1.1274470
       4552.5794       1.0486630
       4553.2984      0.92986050
       4554.0173      0.82940880
       4554.7362       1.5547660
       4555.4552       1.3778480
       4556.1741       1.4147840
       4556.8931       1.6972830
       4557.6121       1.6346780
       4558.3310       1.3344180
       4559.0499       1.7246860
       4559.7688       1.4473340
       4560.4878       1.2540580
       4561.2068       1.2591260
       4561.9257       1.7764080
       4562.6446       1.4314780
       4563.3636       1.5280720
       4564.0825       1.6976020
       4564.8015       1.6052300
       4565.5204       1.1608090
       4566.2394       1.4022740
       4566.9583       1.4308190
       4567.6772       1.3095970
       4568.3962       1.6098230
       4569.1152       1.4801800
       4569.8341       1.5484770
       4570.5530       1.4750670
       4571.2720       1.6205830
       4571.9909       1.3106160
       4572.7099      0.87535450
       4573.4288       1.0928210
       4574.1478       1.6607070
       4574.8667       1.8914480
       4575.5856       1.3178690
       4576.3045       1.4649630
       4577.0236       1.7906630
       4577.7425       1.5892650
       4578.4614       1.4610770
       4579.1804       1.5935470
       4579.8993       1.6264230
       4580.6183       1.7066350
       4581.3372       2.0314880
       4582.0562       1.6296710
       4582.7751       1.7912460
       4583.4940       1.9403730
       4584.2129       1.7230660
       4584.9320       1.4821610
       4585.6509       1.3919370
       4586.3698       1.5786940
       4587.0887       1.7079030
       4587.8077       1.4994600
       4588.5267       1.6611890
       4589.2456       1.6197700
       4589.9646       1.9734950
       4590.6835       1.8987380
       4591.4024       2.0229200
       4592.1213       2.0045290
       4592.8404       1.9973550
       4593.5593       2.1073940
       4594.2782       1.7905780
       4594.9971       1.9530510
       4595.7161       2.1476570
       4596.4351       1.8423840
       4597.1540       1.9509390
       4597.8729       1.9698540
       4598.5919       1.9698680
       4599.3108       1.8733720
       4600.0297       1.9922310
       4600.7488       1.9168270
       4601.4677       1.5718120
       4602.1866       2.0660950
       4602.9055       1.9685620
       4603.6245       1.9688890
       4604.3435       1.3501490
       4605.0624       1.9267150
       4605.7813       1.6899870
       4606.5003       1.7679180
       4607.2192       1.8670380
       4607.9381       1.9180820
       4608.6571       1.8343720
       4609.3761       1.7791390
       4610.0950       1.3170980
       4610.8139       1.8148760
       4611.5329       1.6917830
       4612.2519       1.9993600
       4612.9708       1.6650990
       4613.6897       1.6664930
       4614.4087       1.5338980
       4615.1276       1.8991830
       4615.8465       1.8197900
       4616.5655       1.9678880
       4617.2845       1.9220040
       4618.0034       2.0215810
       4618.7223       1.8937810
       4619.4412       1.6561380
       4620.1603       1.7917650
       4620.8792       1.9706570
       4621.5981       1.8498980
       4622.3171       1.6303150
       4623.0360       1.9275860
       4623.7549       1.8713700
       4624.4739       1.8015840
       4625.1929       1.3739720
       4625.9118       1.5956140
       4626.6307       2.1671700
       4627.3496       2.0089440
       4628.0687       1.9079640
       4628.7876       2.1922060
       4629.5065       2.0284110
       4630.2254       1.8027700
       4630.9444       1.7997160
       4631.6633       1.8979570
       4632.3823       1.5299190
       4633.1013       1.9278460
       4633.8202       1.9071880
       4634.5391       1.9470440
       4635.2580       1.7916000
       4635.9771       1.6179230
       4636.6960       1.7858590
       4637.4149       1.7569400
       4638.1338       1.6158740
       4638.8528       2.0288270
       4639.5717       2.0033830
       4640.2907       1.8799690
       4641.0096       2.0122180
       4641.7286       2.0155600
       4642.4475       1.6848730
       4643.1664       1.7939820
       4643.8855       1.7940170
       4644.6044       1.9063430
       4645.3233       1.9899090
       4646.0422       1.9328920
       4646.7612       2.0782230
       4647.4801       1.9772990
       4648.1991       1.7135380
       4648.9180       1.5870650
       4649.6370       1.8821610
       4650.3559       2.0462100
       4651.0748       1.9196090
       4651.7938       1.6559250
       4652.5128       1.7866080
       4653.2317       1.9016100
       4653.9506       1.8617230
       4654.6696       1.6944940
       4655.3885       1.7660390
       4656.1075       2.0056130
       4656.8264       1.7141870
       4657.5454       1.6265810
       4658.2643       1.6365220
       4658.9832       1.4174110
       4659.7022       1.5458600
       4660.4212       1.6835290
       4661.1401       1.7099700
       4661.8590       1.8819160
       4662.5779       1.7089660
       4663.2969       1.5262450
       4664.0159       1.5401600
       4664.7348       1.7354090
       4665.4538       1.2588690
       4666.1727       1.7143860
       4666.8916       1.5296590
       4667.6106       1.4932370
       4668.3296       1.7661060
       4669.0485       1.6211820
       4669.7674       1.9225650
       4670.4863       1.8019620
       4671.2053       1.5685460
       4671.9243       1.2386520
       4672.6432       1.4890520
       4673.3621       1.4692020
       4674.0811       1.5439240
       4674.8000       1.4701240
       4675.5190       1.5734820
       4676.2380       1.4839020
       4676.9569       1.5069270
       4677.6758       1.6703300
       4678.3947       1.4186120
       4679.1137       1.6320630
       4679.8327       1.5586030
       4680.5516       1.3006220
       4681.2705       1.6444420
       4681.9895       1.5310180
       4682.7084       1.4012270
       4683.4274       1.4478490
       4684.1463       1.4408780
       4684.8653       1.6430100
       4685.5842       1.5321500
       4686.3031       1.3009150
       4687.0221       1.2607290
       4687.7411       1.3102160
       4688.4600       1.3937070
       4689.1789       1.4386900
       4689.8979       1.5990160
       4690.6168       1.4263090
       4691.3358       1.1037550
       4692.0547       1.3601980
       4692.7737       1.3789520
       4693.4926       1.4354300
       4694.2115       1.1468550
       4694.9304       1.3257910
       4695.6495       1.3952400
       4696.3684       1.4146550
       4697.0873       1.1731550
       4697.8063       1.2240600
       4698.5252       1.1715170
       4699.2442       1.1971310
       4699.9631       1.3526470
       4700.6821       1.0290380
       4701.4010       1.1700570
       4702.1199       1.3788910
       4702.8388       1.1780940
       4703.5579       1.0544470
       4704.2768      0.96106120
       4704.9957       1.0120200
       4705.7146       1.2199970
       4706.4336       1.7319190
       4707.1526       1.2068830
       4707.8715       1.0797380
       4708.5905       1.1727700
       4709.3094       1.1699820
       4710.0283       1.3765190
       4710.7472       1.2798570
       4711.4663       1.2433290
       4712.1852       1.3193410
       4712.9041       1.1062810
       4713.6230       1.0469190
       4714.3420       1.2153390
       4715.0610       1.0316860
       4715.7799       1.1639610
       4716.4988       1.0677460
       4717.2178      0.84463910
       4717.9367       1.2021780
       4718.6556       1.3926360
       4719.3747       1.0519410
       4720.0936      0.79052200
       4720.8125      0.92260090
       4721.5314       1.0525600
       4722.2504       1.3083910
       4722.9694       1.2952260
       4723.6883       1.4377070
       4724.4072       1.4545620
       4725.1262       1.4638870
       4725.8451       1.4324530
       4726.5640      0.92255870
       4727.2830      0.62097380
       4728.0020      0.61815370
       4728.7209      0.72278210
       4729.4398      0.91604670
       4730.1588       1.2292280
       4730.8778       1.1711530
       4731.5967       1.1955460
       4732.3156       1.0299130
       4733.0346       1.0628730
       4733.7535       1.2965250
       4734.4724       1.1043340
       4735.1914       1.3058780
       4735.9104       1.3556880
       4736.6293       1.3377600
       4737.3482       1.2469690
       4738.0671       1.0655490
       4738.7862       1.2215840
       4739.5051       1.1216890
       4740.2240       1.2584550
       4740.9430       1.0992780
       4741.6619       1.3501230
       4742.3808      0.99057740
       4743.0998       1.1716730
       4743.8188       1.3882340
       4744.5377       1.2426880
       4745.2566       1.1714950
       4745.9755       1.3995550
       4746.6946       1.2659700
       4747.4135       1.1591490
       4748.1324       1.3839620
       4748.8513       1.2626600
       4749.5703       1.4609730
       4750.2892       1.2134140
       4751.0082       1.1287140
       4751.7271      0.89498790
       4752.4461       1.1298650
       4753.1650       1.0906370
       4753.8839       1.1219410
       4754.6030       1.0387340
       4755.3219       1.1447770
       4756.0408       1.3700460
       4756.7597       1.1938530
       4757.4787       1.1401640
       4758.1976       1.2266140
       4758.9166       1.1864740
       4759.6355       1.3007840
       4760.3545       1.0754330
       4761.0734       1.0196380
       4761.7923       1.1139330
       4762.5112       1.1248240
       4763.2303       1.0815550
       4763.9492       1.1957680
       4764.6681       1.2473790
       4765.3871       1.1122880
       4766.1060       1.0768610
       4766.8250       1.1551760
       4767.5439       1.1640530
       4768.2629       1.1015830
       4768.9818       1.1768420
       4769.7007       1.0752080
       4770.4196      0.76389750
       4771.1387      0.89371270
       4771.8576      0.97427870
       4772.5765       1.0315140
       4773.2954       1.0874710
       4774.0144       1.1060930
       4774.7334       1.0295780
       4775.4523      0.79135770
       4776.1713      0.71494890
       4776.8902       1.0648430
       4777.6091       1.0221610
       4778.3280       1.0026850
       4779.0471      0.93911270
       4779.7660       1.0097950
       4780.4849      0.94765290
       4781.2038       1.1178030
       4781.9228       1.1071780
       4782.6418       1.0456060
       4783.3607      0.99919890
       4784.0796       1.0487820
       4784.7986       1.1224540
       4785.5175      0.99354650
       4786.2364       1.0560700
       4786.9555       1.1216560
       4787.6744      0.87448510
       4788.3933      0.90328150
       4789.1122       1.0040770
       4789.8312      0.85531660
       4790.5502      0.81122150
       4791.2691       1.1021120
       4791.9880      0.98514680
       4792.7070       1.0730720
       4793.4259       1.0427230
       4794.1448      0.99547940
       4794.8638       1.1507080
       4795.5828       1.0752240
       4796.3017       1.1490970
       4797.0206      0.90414770
       4797.7396      0.97859070
       4798.4586       1.1001400
       4799.1775       1.0438570
       4799.8964       1.1459850
       4800.6154       1.0773680
       4801.3343      0.97448140
       4802.0532       1.0339300
       4802.7722      0.88217370
       4803.4912      0.81335130
       4804.2101      0.91172550
       4804.9290      0.72248190
       4805.6479       1.0048590
       4806.3670      0.78255450
       4807.0859      0.93713090
       4807.8048      0.95188080
       4808.5238       1.1539880
       4809.2427       1.1031370
       4809.9616       1.1279070
       4810.6806      0.92017730
       4811.3996       1.0129340
       4812.1185       1.0212840
       4812.8374       1.0889760
       4813.5563       1.0485870
       4814.2754       1.1621530
       4814.9943       1.0909470
       4815.7132      0.96122200
       4816.4321      0.92165390
       4817.1511       1.1392960
       4817.8700       1.1162300
       4818.5890       1.2087460
       4819.3080       1.0969170
       4820.0269       1.0294930
       4820.7458       1.1531130
       4821.4647       1.2491490
       4822.1838       1.0861880
       4822.9027       1.1501670
       4823.6216      0.94698120
       4824.3405       1.0843850
       4825.0595       1.2920100
       4825.7784       1.1162220
       4826.4974       1.0291870
       4827.2163       1.2769000
       4827.9353       1.2246250
       4828.6542       1.1009340
       4829.3731       1.1452310
       4830.0922       1.2745300
       4830.8111       1.0731320
       4831.5300       1.0164930
       4832.2489       1.2648880
       4832.9679       1.1093430
       4833.6868       1.0940100
       4834.4058       1.2512700
       4835.1247       1.2152080
       4835.8437       1.0897770
       4836.5626       1.1211220
       4837.2815       1.1338170
       4838.0005       1.0729930
       4838.7195       1.0919080
       4839.4384       1.1585590
       4840.1573       1.3818020
       4840.8763       1.2764630
       4841.5952       1.1703010
       4842.3142       1.3146830
       4843.0331       1.0916300
       4843.7521       1.1177560
       4844.4710       1.2680540
       4845.1899       1.1353680
       4845.9089       1.2614700
       4846.6279       1.2220700
       4847.3468       1.2043420
       4848.0657       1.1234480
       4848.7846       1.3260810
       4849.5036       1.2215500
       4850.2226       1.0504290
       4850.9415       1.1296780
       4851.6605       1.1254080
       4852.3794       1.2872740
       4853.0983       1.3109980
       4853.8173       1.2952930
       4854.5363       1.2069020
       4855.2552       1.1647610
       4855.9741       1.0944770
       4856.6930       1.0756020
       4857.4120       1.1696010
       4858.1310       1.3074000
       4858.8499       1.2025440
       4859.5688       1.2169050
       4860.2878       1.0364450
       4861.0067       1.0162820
       4861.7257       1.0632010
       4862.4447      0.93285990
       4863.1636      0.66519630
       4863.8825       1.0458050
       4864.6014       1.1639360
       4865.3204       1.2066120
       4866.0394       1.0216310
       4866.7583       1.0137600
       4867.4772       1.0135240
       4868.1962       1.1554650
       4868.9151       1.0251620
       4869.6341      0.89751310
       4870.3530       1.0297750
       4871.0720       1.2417640
       4871.7909       1.0169770
       4872.5098      0.93969800
       4873.2288      0.94367560
       4873.9478       1.1474230
       4874.6667      0.99397000
       4875.3856       1.0510020
       4876.1046       1.1480360
       4876.8235       1.1315990
       4877.5425       1.1212720
       4878.2614       1.2928280
       4878.9804       1.0784500
       4879.6993       1.1433840
       4880.4182      0.94507710
       4881.1371       1.1268990
       4881.8562       1.1887350
       4882.5751       1.2190380
       4883.2940       1.0745720
       4884.0130       1.0581180
       4884.7319       1.1711740
       4885.4509       1.0099070
       4886.1698       1.1888300
       4886.8888       1.1301330
       4887.6077       1.0824630
       4888.3266      0.92642350
       4889.0455       1.1798460
       4889.7646       1.3211100
       4890.4835       1.1359030
       4891.2024       1.2542280
       4891.9213       1.2569460
       4892.6403       1.1769210
       4893.3593       1.2399390
       4894.0782       1.3165980
       4894.7972       1.2678640
       4895.5161       1.2773530
       4896.2350       1.2745060
       4896.9539       1.2098800
       4897.6730       1.0463760
       4898.3919       1.2315960
       4899.1108       1.1225460
       4899.8297       1.3337660
       4900.5487       1.1720800
       4901.2677       1.2563000
       4901.9866       1.4740610
       4902.7055       1.3664760
       4903.4245       1.2174690
       4904.1434       1.4094990
       4904.8623       1.1651750
       4905.5814       1.3129900
       4906.3003       1.0080690
       4907.0192       1.0910690
       4907.7381       1.2019790
       4908.4571       1.3582380
       4909.1761       1.2595780
       4909.8950       1.2942990
       4910.6139       1.1575900
       4911.3329       1.3255290
       4912.0518       1.3330290
       4912.7707       1.1567700
       4913.4897       1.4047440
       4914.2087       1.4894730
       4914.9276       1.2072000
       4915.6465       1.3727860
       4916.3655       1.3909000
       4917.0845       1.3186130
       4917.8034       1.4198030
       4918.5223       1.4267840
       4919.2413       1.3539270
       4919.9602       1.1507640
       4920.6791       1.0728090
       4921.3981       1.1148410
       4922.1171       1.2919310
       4922.8360       1.4860080
       4923.5549       1.4867110
       4924.2738       1.5024060
       4924.9929       1.5191720
       4925.7118       1.4107530
       4926.4307       1.5502420
       4927.1497       1.5105480
       4927.8686       1.6029000
       4928.5875       1.4540880
       4929.3065       1.3717650
       4930.0255       1.5164610
       4930.7444       1.4556710
       4931.4633       1.3775630
       4932.1822       1.5610750
       4932.9013       1.5066900
       4933.6202       1.5169190
       4934.3391       1.5083720
       4935.0580       1.3678140
       4935.7770       1.6233430
       4936.4959       1.5018070
       4937.2149       1.4912040
       4937.9339       1.6123240
       4938.6528       1.5739330
       4939.3717       1.6719740
       4940.0906       1.7218450
       4940.8097       1.7311970
       4941.5286       1.5826860
       4942.2475       1.6149280
       4942.9664       1.7344070
       4943.6854       1.8381310
       4944.4043       1.7223340
       4945.1233       1.5916750
       4945.8422       1.7458080
       4946.5612       1.6905950
       4947.2801       1.7594040
       4947.9990       1.7907820
       4948.7180       1.7631170
       4949.4370       1.7176850
       4950.1559       1.7613720
       4950.8748       1.5719830
       4951.5938       1.6157200
       4952.3127       1.6166950
       4953.0317       1.5395190
       4953.7506       1.8909630
       4954.4696       1.9023040
       4955.1885       1.8120680
       4955.9074       1.9365990
       4956.6264       1.9049500
       4957.3454       1.7096500
       4958.0643       1.6354130
       4958.7832       1.7201790
       4959.5021       1.7350940
       4960.2211       1.5284890
       4960.9401       1.7992630
       4961.6590       1.9460680
       4962.3780       1.7702030
       4963.0969       1.6189880
       4963.8158       1.7388690
       4964.5348       1.8000470
       4965.2538       1.6376350
       4965.9727       1.7247850
       4966.6916       1.5259710
       4967.4105       1.6536630
       4968.1295       1.9252260
       4968.8485       1.8508880
       4969.5674       1.6900210
       4970.2863       1.7627060
       4971.0053       1.8754940
       4971.7242       1.7979900
       4972.4432       1.7111140
       4973.1622       1.6083970
       4973.8811       1.5607580
       4974.6000       1.6891690
       4975.3189       1.7352060
       4976.0379       1.5982130
       4976.7569       1.6357200
       4977.4758       1.6384330
       4978.1947       1.4276830
       4978.9137       1.6007190
       4979.6326       1.6486830
       4980.3516       1.5814440
       4981.0705       1.5353510
       4981.7895       1.5015620
       4982.5084       1.6061800
       4983.2273       1.5567540
       4983.9463       1.6535240
       4984.6653       1.4904340
       4985.3842       1.4546880
       4986.1031       1.5017640
       4986.8221       1.5562740
       4987.5410       1.3632920
       4988.2600       1.3732870
       4988.9789       1.4705670
       4989.6979       1.4304900
       4990.4168       1.1760370
       4991.1357       1.2681990
       4991.8546       1.3772710
       4992.5737       1.1955560
       4993.2926       1.1623260
       4994.0115       1.3913780
       4994.7305       1.2567090
       4995.4494       1.2324870
       4996.1684       1.0276230
       4996.8873       1.2915650
       4997.6063       1.2411240
       4998.3252       1.3179750
       4999.0441       1.2086700
       4999.7630       1.2920980
       5000.4821       1.2772220
       5001.2010       1.3260750
       5001.9199       1.4423950
       5002.6388       1.3037210
       5003.3578       1.2796910
       5004.0768       1.3184700
       5004.7957       1.2803490
       5005.5147       1.2782850
       5006.2336       1.2678490
       5006.9525       1.1702780
       5007.6714       1.2179290
       5008.3905       1.2266750
       5009.1094       1.1168460
       5009.8283       1.1920890
       5010.5472       1.1137680
       5011.2662       1.2012510
       5011.9852       1.3508410
       5012.7041       1.2367010
       5013.4230       1.1421200
       5014.1420       1.2593410
       5014.8609       1.2671380
       5015.5798       1.1938980
       5016.2989       1.1013650
       5017.0178       1.1287860
       5017.7367       1.0223450
       5018.4556      0.99750670
       5019.1746       1.0819460
       5019.8936       1.1425670
       5020.6125       1.0927180
       5021.3314      0.97124500
       5022.0504       1.0165910
       5022.7693      0.97727690
       5023.4882       1.0373080
       5024.2072       1.0918870
       5024.9262      0.98506410
       5025.6451       1.1611130
       5026.3640       1.1050440
       5027.0830       1.0877300
       5027.8020       1.1486560
       5028.5209       1.1697460
       5029.2398       1.2108690
       5029.9588       1.2155140
       5030.6777       1.0276900
       5031.3966      0.96520790
       5032.1156      0.85919010
       5032.8346       1.0379760
       5033.5535      0.94172610
       5034.2724       1.0872900
       5034.9913      0.91535410
       5035.7104       1.0000380
       5036.4293      0.93836650
       5037.1482       1.0829150
       5037.8672      0.85353320
       5038.5861      0.92233670
       5039.3050      0.88780700
       5040.0240       1.0253920
       5040.7430       1.0251270
       5041.4619       1.0747360
       5042.1808       1.1399580
       5042.8997       1.0381380
       5043.6188      0.93193440
       5044.3377      0.99804640
       5045.0566      0.90892420
       5045.7755      0.94543450
       5046.4945      0.97199230
       5047.2134      0.99033710
       5047.9324      0.90842560
       5048.6514      0.99719740
       5049.3703      0.92888020
       5050.0892      0.98372630
       5050.8081      0.93593700
       5051.5272       1.0376980
       5052.2461       1.0355340
       5052.9650       1.0256690
       5053.6839      0.96128750
       5054.4029      0.99900460
       5055.1218       1.0072540
       5055.8408       1.0205420
       5056.5597      0.84580550
       5057.2787      0.94461760
       5057.9976      0.84706210
       5058.7165      0.96530200
       5059.4355       1.0196380
       5060.1545       1.0101880
       5060.8734       1.0085480
       5061.5923      0.90880890
       5062.3113      0.83354370
       5063.0302      0.97029210
       5063.7492       1.1030090
       5064.4681      0.99712380
       5065.1871      0.87124340
       5065.9060      0.92708520
       5066.6249       1.0490860
       5067.3438       1.0392430
       5068.0629      0.87846460
       5068.7818       1.0129110
       5069.5007      0.80431840
       5070.2197      0.89099250
       5070.9386       1.0137840
       5071.6576      0.87847660
       5072.3765      0.84123800
       5073.0955      0.96042370
       5073.8144      0.88041020
       5074.5333      0.78268280
       5075.2522      0.98027330
       5075.9713       1.0508110
       5076.6902      0.95931560
       5077.4091       1.0078440
       5078.1280      0.97369860
       5078.8470      0.95132650
       5079.5660      0.96925550
       5080.2849      0.95280480
       5081.0039       1.1001930
       5081.7228       1.1662570
       5082.4417       1.1065710
       5083.1606      0.98172980
       5083.8797      0.87930870
       5084.5986      0.88188230
       5085.3175      0.90038230
       5086.0364      0.94428800
       5086.7554       1.0310650
       5087.4744      0.94404600
       5088.1933      0.87084080
       5088.9122      0.88621240
       5089.6312      0.87540110
       5090.3501      0.92792490
       5091.0690       1.1155390
       5091.7881      0.97189300
       5092.5070       1.1019240
       5093.2259       1.1091100
       5093.9448       1.1242430
       5094.6638       1.0310290
       5095.3828      0.98993860
       5096.1017      0.97390660
       5096.8206       1.0505260
       5097.5396       1.1199080
       5098.2585       1.0730090
       5098.9774      0.92683080
       5099.6964       1.1237760
       5100.4154       1.0526700
       5101.1343       1.0964320
       5101.8532       1.1703520
       5102.5722       1.1337910
       5103.2912       1.1868210
       5104.0101       1.2186620
       5104.7290      0.89619830
       5105.4480       1.0558110
       5106.1669       1.1467850
       5106.8858       1.1802780
       5107.6048       1.0213780
       5108.3238       1.1121640
       5109.0427       1.0783460
       5109.7616       1.1750670
       5110.4805       1.1248560
       5111.1996       1.1599670
       5111.9185      0.87899480
       5112.6374       1.2893300
       5113.3564       1.2056240
       5114.0753       1.2065580
       5114.7942       1.1567630
       5115.5132       1.0677210
       5116.2322       1.0886420
       5116.9511       1.2296270
       5117.6700       1.1328690
       5118.3889       1.0993170
       5119.1080       1.2428200
       5119.8269       1.2402030
       5120.5458       1.1495120
       5121.2647       1.2294720
       5121.9837       1.1135470
       5122.7026       1.2775680
       5123.4216       1.3439610
       5124.1406       1.0754450
       5124.8595       1.0633580
       5125.5784       1.3040540
       5126.2973       1.2012980
       5127.0164       1.1209910
       5127.7353       1.2056590
       5128.4542       1.3144550
       5129.1731       1.3439260
       5129.8921       1.3126110
       5130.6110       1.2271510
       5131.3300       1.1256430
       5132.0489       1.2495960
       5132.7679       1.4249240
       5133.4868       1.3217780
       5134.2057       1.2665250
       5134.9248       1.0866480
       5135.6437       1.2374770
       5136.3626       1.3096630
       5137.0815       1.2796140
       5137.8005       1.2113740
       5138.5194       1.3231790
       5139.2384       1.1966260
       5139.9573       1.2411810
       5140.6763       1.4252560
       5141.3952       1.2562540
       5142.1141       1.1736060
       5142.8331       1.3028750
       5143.5521       1.1989870
       5144.2710       1.1660600
       5144.9899       1.1744070
       5145.7088       1.1944390
       5146.4278       1.2884640
       5147.1468       1.2347290
       5147.8657       1.1630720
       5148.5847       1.1654850
       5149.3036       1.1980750
       5150.0225       1.3622580
       5150.7415       1.3616530
       5151.4605       1.3925210
       5152.1794       1.2902420
       5152.8983       1.2616050
       5153.6172       1.3129730
       5154.3362       1.3391400
       5155.0552       1.3640180
       5155.7741       1.3754870
       5156.4930       1.3932650
       5157.2120       1.3040950
       5157.9309       1.2954690
       5158.6499       1.3359610
       5159.3689       1.4074970
       5160.0878       1.3502810
       5160.8067       1.3218120
       5161.5256       1.2840870
       5162.2446       1.2685040
       5162.9636       1.3458490
       5163.6825       1.3869190
       5164.4014       1.3214910
       5165.1204       1.3085170
       5165.8393       1.3846280
       5166.5583       1.4482860
       5167.2772       1.4224570
       5167.9962       1.3753250
       5168.7151       1.4643480
       5169.4340       1.3771340
       5170.1530       1.2103000
       5170.8720       1.2756180
       5171.5909       1.2837070
       5172.3098       1.4506020
       5173.0288       1.4779940
       5173.7477       1.3342050
       5174.4667       1.3297730
       5175.1856       1.2790500
       5175.9046       1.3076710
       5176.6235       1.3442890
       5177.3424       1.2190440
       5178.0613       1.3235340
       5178.7804       1.3077980
       5179.4993       1.1676090
       5180.2182       1.1311990
       5180.9372       1.2588520
       5181.6561       1.2194890
       5182.3751       1.1797930
       5183.0940       1.2486290
       5183.8130       1.3024480
       5184.5319       1.2905840
       5185.2508       1.4953950
       5185.9697       1.3857330
       5186.6888       1.4240720
       5187.4077       1.3653760
       5188.1266       1.3573550
       5188.8455       1.3484250
       5189.5645       1.2728550
       5190.2835       1.2250170
       5191.0024       1.2778080
       5191.7214       1.3279960
       5192.4403       1.4691480
       5193.1592       1.4216240
       5193.8781       1.4263490
       5194.5972       1.4725670
       5195.3161       1.4865090
       5196.0350       1.3656530
       5196.7539       1.4560650
       5197.4729       1.2916300
       5198.1919       1.3955800
       5198.9108       1.3884450
       5199.6297       1.3795230
       5200.3487       1.3580960
       5201.0676       1.3973600
       5201.7865       1.5404800
       5202.5056       1.5584940
       5203.2245       1.4850530
       5203.9434       1.5092050
       5204.6623       1.3649600
       5205.3813       1.4371730
       5206.1003       1.4635880
       5206.8192       1.3811660
       5207.5381       1.2613850
       5208.2571       1.3561330
       5208.9760       1.5472420
       5209.6949       1.3826320
       5210.4139       1.4939390
       5211.1329       1.5814100
       5211.8518       1.5767520
       5212.5707       1.6151010
       5213.2897       1.5033440
       5214.0087       1.5017990
       5214.7276       1.4735090
       5215.4465       1.4713010
       5216.1655       1.4827300
       5216.8844       1.5993780
       5217.6033       1.6305720
       5218.3223       1.5408010
       5219.0413       1.5763220
       5219.7602       1.5704780
       5220.4791       1.4999930
       5221.1980       1.4749890
       5221.9171       1.5298330
       5222.6360       1.5564390
       5223.3549       1.5267280
       5224.0739       1.4349060
       5224.7928       1.6039140
       5225.5117       1.4822700
       5226.2307       1.3985690
       5226.9497       1.5762600
       5227.6686       1.6944230
       5228.3875       1.4982800
       5229.1064       1.4879900
       5229.8255       1.3781620
       5230.5444       1.5932380
       5231.2633       1.5833570
       5231.9822       1.6609300
       5232.7012       1.6409400
       5233.4201       1.7579640
       5234.1391       1.6502860
       5234.8581       1.6341580
       5235.5770       1.5605460
       5236.2959       1.5270030
       5237.0148       1.4906280
       5237.7339       1.7708950
       5238.4528       1.7163020
       5239.1717       1.7363450
       5239.8906       1.6916510
       5240.6096       1.6857790
       5241.3285       1.8360940
       5242.0475       1.7523960
       5242.7664       1.7996830
       5243.4854       1.8267010
       5244.2043       1.8481290
       5244.9232       1.7336250
       5245.6423       1.6731120
       5246.3612       1.7668810
       5247.0801       1.6298660
       5247.7990       1.5600440
       5248.5180       1.5756370
       5249.2369       1.8604470
       5249.9559       1.8325540
       5250.6748       1.7566060
       5251.3938       1.5224200
       5252.1127       1.6348210
       5252.8316       1.8246870
       5253.5506       1.6932810
       5254.2696       1.7075380
       5254.9885       1.7552380
       5255.7074       1.6363650
       5256.4264       1.6257470
       5257.1453       1.6681540
       5257.8643       1.7847690
       5258.5832       1.7432030
       5259.3022       1.6828440
       5260.0211       1.6821000
       5260.7400       1.6610290
       5261.4590       1.8041770
       5262.1780       1.8421470
       5262.8969       1.7192670
       5263.6158       1.7026580
       5264.3347       1.7881150
       5265.0537       1.9037570
       5265.7727       1.9087710
       5266.4916       1.6470470
       5267.2106       1.6793310
       5267.9295       1.8442090
       5268.6484       1.8290790
       5269.3674       1.6930370
       5270.0864       1.7520000
       5270.8053       1.7849740
       5271.5242       1.9111610
       5272.2431       1.8380880
       5272.9621       2.0186350
       5273.6811       1.8911400
       5274.4000       1.9422260
       5275.1189       2.0027420
       5275.8379       1.9227110
       5276.5568       1.8950000
       5277.2758       2.0082390
       5277.9948       1.9502710
       5278.7137       1.8989040
       5279.4326       1.7711240
       5280.1515       1.8156020
       5280.8705       1.7402110
       5281.5895       1.8127730
       5282.3084       1.8868030
       5283.0273       1.9766300
       5283.7463       1.8949450
       5284.4652       2.0284310
       5285.1842       1.9189630
       5285.9031       1.9810630
       5286.6221       1.9892650
       5287.3410       1.9498920
       5288.0599       1.9188260
       5288.7789       1.9795340
       5289.4979       1.9687000
       5290.2168       2.0048850
       5290.9357       1.9134950
       5291.6547       1.9029280
       5292.3736       1.9724170
       5293.0926       2.0070340
       5293.8115       1.9635960
       5294.5305       1.9453750
       5295.2494       1.9301660
       5295.9683       1.9544860
       5296.6872       1.9239310
       5297.4063       2.0370780
       5298.1252       1.8581660
       5298.8441       1.8193200
       5299.5631       1.9609010
       5300.2820       2.0264720
       5301.0010       2.0571100
       5301.7199       2.0650420
       5302.4389       2.0174580
       5303.1578       1.9748470
       5303.8767       1.9813160
       5304.5956       1.9859080
       5305.3147       2.0079770
       5306.0336       2.0429060
       5306.7525       2.0693700
       5307.4714       1.9398460
       5308.1904       1.9642010
       5308.9094       2.1474570
       5309.6283       2.1453220
       5310.3473       1.9957950
       5311.0662       1.9384090
       5311.7851       2.1297360
       5312.5040       2.1942120
       5313.2231       1.9855730
       5313.9420       2.1127690
       5314.6609       2.1410980
       5315.3798       2.1050190
       5316.0988       2.0558810
       5316.8178       2.1323440
       5317.5367       1.9533720
       5318.2556       2.0508630
       5318.9746       2.0806990
       5319.6935       2.1472640
       5320.4124       2.1471550
       5321.1315       2.1594050
       5321.8504       2.1030810
       5322.5693       2.2026380
       5323.2882       2.0184810
       5324.0072       2.1065200
       5324.7262       2.0994740
       5325.4451       2.1159950
       5326.1640       2.2587240
       5326.8830       2.2431170
       5327.6019       2.3464180
       5328.3208       2.1162370
       5329.0398       2.0326730
       5329.7588       2.1415800
       5330.4777       2.3007840
       5331.1966       2.1876690
       5331.9156       2.1446510
       5332.6346       2.1690610
       5333.3535       2.1446000
       5334.0724       2.1778210
       5334.7914       2.2745870
       5335.5103       2.2687150
       5336.2292       2.3342140
       5336.9482       2.4405510
       5337.6672       2.4081030
       5338.3861       2.1949620
       5339.1050       2.2964290
       5339.8239       2.3562670
       5340.5430       2.3106400
       5341.2619       2.3729100
       5341.9808       2.2779110
       5342.6997       2.2159220
       5343.4187       2.3299610
       5344.1376       2.4044120
       5344.8566       2.3500880
       5345.5756       2.2417150
       5346.2945       2.2772510
       5347.0134       2.3875790
       5347.7323       2.3317030
       5348.4514       2.3057810
       5349.1703       2.2345060
       5349.8892       2.2136190
       5350.6081       2.3393300
       5351.3271       2.4085270
       5352.0460       2.3147800
       5352.7650       2.3546600
       5353.4839       2.3171860
       5354.2029       2.1728460
       5354.9218       2.1125130
       5355.6407       2.3738730
       5356.3597       2.3896870
       5357.0787       2.4210200
       5357.7976       2.2847360
       5358.5165       2.2575580
       5359.2355       2.3818100
       5359.9544       2.2066680
       5360.6734       2.3668980
       5361.3923       2.3720490
       5362.1113       2.2886890
       5362.8302       2.2319600
       5363.5491       2.3915230
       5364.2680       2.3238480
       5364.9871       2.1624500
       5365.7060       2.2184420
       5366.4249       2.2284340
       5367.1439       2.2165450
       5367.8628       2.2497800
       5368.5818       2.3667200
       5369.3007       2.3175160
       5370.0197       2.2024740
       5370.7386       2.2062130
       5371.4575       2.2124980
       5372.1764       2.2250800
       5372.8955       2.2064020
       5373.6144       2.2482710
       5374.3333       2.2313670
       5375.0522       2.1820350
       5375.7712       2.2310430
       5376.4902       2.2311130
       5377.2091       2.1504630
       5377.9281       2.1257050
       5378.6470       2.1293490
       5379.3659       2.2693130
       5380.0848       2.2606780
       5380.8039       2.1026020
       5381.5228       2.2426550
       5382.2417       2.2852250
       5382.9606       2.1496310
       5383.6796       2.1932570
       5384.3986       2.2046820
       5385.1175       2.1137670
       5385.8364       2.1566670
       5386.5554       2.3014260
       5387.2743       2.3826030
       5387.9932       2.2295010
       5388.7123       2.2040680
       5389.4312       2.1607520
       5390.1501       2.1598770
       5390.8690       2.1654120
       5391.5880       2.1817290
       5392.3070       2.1408310
       5393.0259       2.1212030
       5393.7448       2.0512730
       5394.4638       2.1904890
       5395.1827       2.1420470
       5395.9016       2.1447810
       5396.6206       2.2067130
       5397.3396       2.3013350
       5398.0585       2.1682600
       5398.7774       2.1783990
       5399.4964       2.1560500
       5400.2154       2.1820750
       5400.9343       2.2216150
       5401.6532       2.1462730
       5402.3722       2.2526760
       5403.0911       2.3563290
       5403.8100       2.2098220
       5404.5290       2.2958280
       5405.2480       2.1921310
       5405.9669       2.1363090
       5406.6858       2.2233100
       5407.4047       2.1801510
       5408.1238       2.2299730
       5408.8427       2.3681610
       5409.5616       2.2429930
       5410.2806       2.2579880
       5410.9995       2.2264140
       5411.7184       2.0903790
       5412.4374       1.9802370
       5413.1564       2.0606970
       5413.8753       2.0265880
       5414.5942       2.0505820
       5415.3131       2.1890830
       5416.0322       2.1825270
       5416.7511       2.2430440
       5417.4700       2.1169920
       5418.1889       2.0363910
       5418.9079       2.1622110
       5419.6268       2.1664860
       5420.3458       2.0132810
       5421.0648       2.1263380
       5421.7837       2.0303630
       5422.5026       2.1210640
       5423.2215       2.1991560
       5423.9406       2.1958490
       5424.6595       2.0974180
       5425.3784       2.1990700
       5426.0973       2.0736330
       5426.8163       2.1956500
       5427.5352       2.2025200
       5428.2542       2.1182370
       5428.9731       2.0647760
       5429.6921       2.2139990
       5430.4110       2.2376310
       5431.1299       2.2476180
       5431.8490       2.2924570
       5432.5679       2.3110250
       5433.2868       2.2488520
       5434.0057       2.2295300
       5434.7247       2.1872900
       5435.4436       2.0511420
       5436.1626       2.1737060
       5436.8815       2.3574470
       5437.6005       2.3606390
       5438.3194       2.3832660
       5439.0383       2.2943360
       5439.7573       2.4034520
       5440.4763       2.2639650
       5441.1952       2.0791480
       5441.9141       2.1586590
       5442.6331       2.3146990
       5443.3520       2.3449290
       5444.0710       2.3443380
       5444.7899       2.2822100
       5445.5089       2.3985550
       5446.2278       2.5158840
       5446.9467       2.4665710
       5447.6657       2.2485150
       5448.3847       2.2219110
       5449.1036       2.4176150
       5449.8225       2.3416470
       5450.5414       2.3873480
       5451.2604       2.5263330
       5451.9794       2.4598290
       5452.6983       2.3642390
       5453.4173       2.3664910
       5454.1362       2.4031860
       5454.8551       2.4101740
       5455.5741       2.4908440
       5456.2931       2.4922530
       5457.0120       2.4758790
       5457.7309       2.6258460
       5458.4498       2.5406440
       5459.1688       2.5899430
       5459.8878       2.7093600
       5460.6067       2.7950660
       5461.3256       2.6173060
       5462.0446       2.6342220
       5462.7635       2.8261720
       5463.4825       2.7775420
       5464.2015       2.6557120
       5464.9204       2.7853370
       5465.6393       2.8262690
       5466.3582       2.6408560
       5467.0772       2.5473760
       5467.7962       2.6694520
       5468.5151       2.7114920
       5469.2340       2.8000490
       5469.9530       2.8447530
       5470.6719       2.6920490
       5471.3909       2.8181300
       5472.1098       3.0171490
       5472.8288       2.9338150
       5473.5477       2.9113980
       5474.2666       3.0288250
       5474.9856       2.9241860
       5475.7046       2.7880050
       5476.4235       2.9097270
       5477.1424       3.0525490
       5477.8614       3.0425040
       5478.5803       3.0925930
       5479.2993       3.0740480
       5480.0182       3.0192240
       5480.7372       3.1062790
       5481.4561       3.1257180
       5482.1750       3.1118080
       5482.8939       3.1810620
       5483.6130       3.1512310
       5484.3319       3.0554300
       5485.0508       3.1568160
       5485.7698       3.2763800
       5486.4887       3.2501550
       5487.2077       3.1149850
       5487.9266       3.2388730
       5488.6456       3.2552780
       5489.3645       3.2861960
       5490.0834       3.3699510
       5490.8023       3.2436190
       5491.5214       3.2829050
       5492.2403       3.2118250
       5492.9592       3.3040680
       5493.6781       3.3732370
       5494.3971       3.2811680
       5495.1161       3.2366610
       5495.8350       3.3856970
       5496.5540       3.3252240
       5497.2729       3.3486510
       5497.9918       3.3108720
       5498.7107       3.3184850
       5499.4298       3.3026300
       5500.1487       3.3813530
       5500.8676       3.3688290
       5501.5865       3.2073800
       5502.3055       3.2147910
       5503.0245       3.3779300
       5503.7434       3.3300980
       5504.4623       3.2850570
       5505.1813       3.4120020
       5505.9002       3.4673170
       5506.6191       3.4042570
       5507.3382       3.4312290
       5508.0571       3.3731340
       5508.7760       3.2327570
       5509.4949       3.2752310
       5510.2139       3.2770970
       5510.9329       3.1790060
       5511.6518       3.2890800
       5512.3707       3.3315590
       5513.0897       3.2898620
       5513.8086       3.4050660
       5514.5275       3.3184370
       5515.2465       3.2557310
       5515.9655       3.2796150
       5516.6844       3.1832790
       5517.4033       3.2491260
       5518.1223       3.2745160
       5518.8413       3.2960540
       5519.5602       3.2415500
       5520.2791       3.2262720
       5520.9981       3.1762900
       5521.7170       3.2894830
       5522.4359       3.2061180
       5523.1549       3.1801280
       5523.8739       3.2891030
       5524.5928       3.1252480
       5525.3117       3.2319850
       5526.0306       3.1619930
       5526.7497       3.1911740
       5527.4686       3.1992440
       5528.1875       2.9791850
       5528.9065       3.0393200
       5529.6254       3.0677500
       5530.3443       3.0085700
       5531.0633       2.9805970
       5531.7823       2.9455070
       5532.5012       3.0780650
       5533.2201       3.0818040
       5533.9390       2.9678020
       5534.6581       2.9192570
       5535.3770       2.9630130
       5536.0959       2.9454760
       5536.8148       2.9823760
       5537.5338       3.0772340
       5538.2527       2.9281470
       5538.9717       2.8529980
       5539.6906       2.8610190
       5540.4096       2.9458450
       5541.1285       2.9794990
       5541.8474       2.9030430
       5542.5665       2.8953890
       5543.2854       2.9243090
       5544.0043       2.9080700
       5544.7232       2.8264920
       5545.4422       2.9527000
       5546.1611       2.7724160
       5546.8801       2.7026220
       5547.5990       2.8266450
       5548.3180       2.8234380
       5549.0369       2.8277060
       5549.7558       2.5695610
       5550.4748       2.6872050
       5551.1938       2.7793130
       5551.9127       2.7136100
       5552.6316       2.7681500
       5553.3506       2.7744200
       5554.0695       2.6373130
       5554.7885       2.7017290
       5555.5074       2.7494600
       5556.2264       2.7283610
       5556.9453       2.6228840
       5557.6642       2.6191750
       5558.3832       2.5891100
       5559.1022       2.7001240
       5559.8211       2.7499780
       5560.5400       2.5471360
       5561.2589       2.6785420
       5561.9779       2.7697670
       5562.6969       2.4722360
       5563.4158       2.5304720
       5564.1348       2.4891850
       5564.8537       2.4779660
       5565.5726       2.5392100
       5566.2916       2.5807610
       5567.0106       2.5852490
       5567.7295       2.4815410
       5568.4484       2.3731780
       5569.1673       2.3597430
       5569.8863       2.3534410
       5570.6053       2.4577850
       5571.3242       2.5658360
       5572.0431       2.5043060
       5572.7621       2.5157140
       5573.4810       2.4942390
       5574.2000       2.4073330
       5574.9190       2.4648860
       5575.6379       2.5312220
       5576.3568       2.3727090
       5577.0757       2.3484790
       5577.7947       2.4775830
       5578.5137       2.3953190
       5579.2326       2.4779130
       5579.9515       2.4882120
       5580.6705       2.3481580
       5581.3894       2.6195880
       5582.1084       2.4972530
       5582.8273       2.4805900
       5583.5463       2.5494390
       5584.2652       2.4380000
       5584.9841       2.5175030
       5585.7031       2.5403230
       5586.4221       2.6042400
       5587.1410       2.5842500
       5587.8599       2.5279220
       5588.5789       2.5022650
       5589.2978       2.4173650
       5590.0168       2.5158050
       5590.7357       2.5416310
       5591.4547       2.6170440
       5592.1736       2.6418340
       5592.8925       2.3377780
       5593.6114       2.3411090
       5594.3305       2.5739880
       5595.0494       2.6063690
       5595.7683       2.5766560
       5596.4873       2.6068030
       5597.2062       2.6809170
       5597.9252       2.6053840
       5598.6441       2.5957340
       5599.3631       2.7045880
       5600.0820       2.7038730
       5600.8009       2.6432870
       5601.5198       2.5918460
       5602.2389       2.6233910
       5602.9578       2.6819700
       5603.6767       2.7793820
       5604.3956       2.6984910
       5605.1146       2.6441580
       5605.8336       2.8313590
       5606.5525       2.8453680
       5607.2715       2.6842280
       5607.9904       2.6398220
       5608.7093       2.8212920
       5609.4282       2.8724520
       5610.1473       2.8689970
       5610.8662       2.8011950
       5611.5851       2.7545410
       5612.3040       2.9213330
       5613.0230       2.9005050
       5613.7420       2.9883130
       5614.4609       3.0122280
       5615.1798       2.9933520
       5615.8988       2.8599890
       5616.6177       2.9957330
       5617.3366       3.0270290
       5618.0557       2.9798800
       5618.7746       2.9236930
       5619.4935       3.0366440
       5620.2124       3.0580440
       5620.9314       3.0358500
       5621.6504       3.0545040
       5622.3693       3.0530840
       5623.0882       3.0362460
       5623.8072       3.1144060
       5624.5261       3.2107510
       5625.2450       3.1572590
       5625.9640       3.1401880
       5626.6830       3.1301220
       5627.4019       3.1876520
       5628.1208       3.3241780
       5628.8398       3.3051970
       5629.5588       3.3216920
       5630.2777       3.3657420
       5630.9966       3.2357700
       5631.7156       3.1286940
       5632.4345       3.2211470
       5633.1534       3.3007620
       5633.8724       3.3248590
       5634.5914       3.2849210
       5635.3103       3.5460470
       5636.0292       3.4446780
       5636.7481       3.3114850
       5637.4672       3.3847500
       5638.1861       3.3924070
       5638.9050       3.3163680
       5639.6240       3.3114570
       5640.3429       3.4217870
       5641.0618       3.4631910
       5641.7808       3.3851830
       5642.4998       3.4066970
       5643.2187       3.3704720
       5643.9376       3.3500200
       5644.6565       3.4245690
       5645.3756       3.4100650
       5646.0945       3.3140170
       5646.8134       3.4029520
       5647.5323       3.3701140
       5648.2513       3.3740610
       5648.9702       3.2825150
       5649.6892       3.4100540
       5650.4082       3.4268350
       5651.1271       3.4034170
       5651.8460       3.3231400
       5652.5649       3.2361200
       5653.2839       3.3342820
       5654.0029       3.4509470
       5654.7218       3.3606050
       5655.4407       3.3211920
       5656.1597       3.3116850
       5656.8786       3.2640950
       5657.5976       3.3772610
       5658.3165       3.2304810
       5659.0355       3.2019460
       5659.7544       3.2547450
       5660.4733       3.0955040
       5661.1923       3.2242920
       5661.9113       3.1416870
       5662.6302       3.1416700
       5663.3491       3.1307900
       5664.0681       2.9888420
       5664.7870       2.9930310
       5665.5060       2.8840030
       5666.2249       2.9017110
       5666.9439       2.9051960
       5667.6628       2.9154400
       5668.3817       2.9377200
       5669.1006       2.8472580
       5669.8197       3.0353280
       5670.5386       2.8885990
       5671.2575       2.8723680
       5671.9765       2.8445460
       5672.6954       2.8274020
       5673.4144       2.8346340
       5674.1333       2.6891550
       5674.8523       2.7349480
       5675.5712       2.8327530
       5676.2901       2.8310050
       5677.0090       2.6811300
       5677.7281       2.6515510
       5678.4470       2.6618210
       5679.1659       2.5567780
       5679.8848       2.5195730
       5680.6038       2.6198650
       5681.3228       2.6077820
       5682.0417       2.4970440
       5682.7607       2.5525350
       5683.4796       2.5489680
       5684.1985       2.5065220
       5684.9174       2.5424040
       5685.6365       2.4966700
       5686.3554       2.4972470
       5687.0743       2.4327940
       5687.7932       2.4782450
       5688.5122       2.4478550
       5689.2312       2.3962350
       5689.9501       2.4787600
       5690.6690       2.3946770
       5691.3880       2.4709900
       5692.1069       2.3565430
       5692.8258       2.3800420
       5693.5449       2.4018010
       5694.2638       2.3781500
       5694.9827       2.4144530
       5695.7016       2.2775700
       5696.4206       2.2738090
       5697.1396       2.2407320
       5697.8585       2.1310440
       5698.5774       2.3618140
       5699.2964       2.3869200
       5700.0153       2.2984180
       5700.7342       2.3850930
       5701.4532       2.3083420
       5702.1722       2.2089740
       5702.8911       2.2865180
       5703.6100       2.2214760
       5704.3290       2.1267280
       5705.0480       2.1645520
       5705.7669       2.2483100
       5706.4858       2.2359480
       5707.2048       2.3046350
       5707.9237       2.2714670
       5708.6426       2.2210620
       5709.3616       2.2788010
       5710.0806       2.1812030
       5710.7995       2.0311510
       5711.5184       1.9224860
       5712.2373       1.9748330
       5712.9564       2.1460370
       5713.6753       2.1173850
       5714.3942       1.9706870
       5715.1132       2.0093660
       5715.8321       1.9789090
       5716.5510       2.0226350
       5717.2700       2.0274680
       5717.9890       2.0635630
       5718.7079       2.0632370
       5719.4268       2.0032790
       5720.1457       2.0152350
       5720.8648       1.9209670
       5721.5837       1.9825010
       5722.3026       1.9833310
       5723.0215       1.9942580
       5723.7405       2.0200480
       5724.4594       1.9787100
       5725.1784       2.0409970
       5725.8974       2.1148360
       5726.6163       2.0288070
       5727.3352       1.9881770
       5728.0541       2.0081790
       5728.7732       2.0904240
       5729.4921       1.9912610
       5730.2110       1.8790370
       5730.9299       1.9469220
       5731.6489       2.0652710
       5732.3678       2.0368580
       5733.0868       1.9382330
       5733.8057       1.9443400
       5734.5247       2.0382210
       5735.2436       2.1005960
       5735.9625       2.0376430
       5736.6815       1.9697310
       5737.4005       1.9838680
       5738.1194       2.0568430
       5738.8383       2.1342580
       5739.5573       2.0451020
       5740.2762       1.9726970
       5740.9952       1.9896470
       5741.7141       2.0352410
       5742.4331       2.1565830
       5743.1520       2.0400490
       5743.8709       2.0296170
       5744.5899       2.0784460
       5745.3089       2.0303500
       5746.0278       2.0385400
       5746.7467       1.8880460
       5747.4656       1.8835260
       5748.1846       1.8803730
       5748.9036       2.0452520
       5749.6225       2.0145660
       5750.3415       2.0650090
       5751.0604       2.0105880
       5751.7793       1.9821430
       5752.4983       1.9810560
       5753.2173       1.9729460
       5753.9362       1.9744060
       5754.6551       1.9668550
       5755.3740       1.8120960
       5756.0930       1.9011690
       5756.8120       1.9382240
       5757.5309       1.8737700
       5758.2498       1.9276160
       5758.9688       1.8289930
       5759.6877       1.8919820
       5760.4067       1.9546760
       5761.1257       1.7765460
       5761.8446       1.8290880
       5762.5635       1.9290440
       5763.2824       1.9578340
       5764.0014       2.0133630
       5764.7204       2.0146650
       5765.4393       2.0451690
       5766.1582       1.9704890
       5766.8772       1.9486230
       5767.5961       1.9751950
       5768.3151       2.0656890
       5769.0340       1.8834790
       5769.7530       1.8875980
       5770.4719       1.9012710
       5771.1908       1.8781690
       5771.9098       1.8230220
       5772.6288       1.9781890
       5773.3477       2.0604470
       5774.0666       1.8955570
       5774.7856       1.7629060
       5775.5045       1.9206820
       5776.2235       1.7707760
       5776.9424       1.9338550
       5777.6614       2.0263800
       5778.3803       2.0118260
       5779.0992       1.9557690
       5779.8181       1.9135910
       5780.5372       1.8270470
       5781.2561       1.8113250
       5781.9750       1.9383650
       5782.6940       1.9797920
       5783.4129       1.9839940
       5784.1319       1.9760550
       5784.8508       1.8701990
       5785.5698       1.9280020
       5786.2887       2.0724250
       5787.0076       2.0269300
       5787.7265       1.8931140
       5788.4456       1.8920500
       5789.1645       1.9680910
       5789.8834       1.8705650
       5790.6023       1.8827890
       5791.3213       2.0456330
       5792.0403       1.9367670
       5792.7592       1.9355930
       5793.4782       1.9191720
       5794.1971       1.7665080
       5794.9160       1.8962070
       5795.6349       1.8432600
       5796.3540       1.9576230
       5797.0729       2.0181310
       5797.7918       1.9505640
       5798.5107       1.9579210
       5799.2297       2.0521750
       5799.9487       1.9435420
       5800.6676       1.9276550
       5801.3865       1.8563500
       5802.1055       1.8541670
       5802.8244       1.7591530
       5803.5433       1.8200900
       5804.2624       1.9070420
       5804.9813       1.7697020
       5805.7002       1.9087860
       5806.4191       1.9526790
       5807.1381       1.9823020
       5807.8571       1.9686520
       5808.5760       1.8866930
       5809.2949       2.0508040
       5810.0139       1.9084230
       5810.7328       1.9463800
       5811.4517       2.0366410
       5812.1707       2.0413830
       5812.8897       2.1487090
       5813.6086       2.0283540
       5814.3275       2.0862420
       5815.0465       2.0956510
       5815.7655       1.9125410
       5816.4844       2.0411760
       5817.2033       2.1559470
       5817.9223       2.1925080
       5818.6412       2.1229390
       5819.3601       2.2121300
       5820.0791       2.2127300
       5820.7981       2.0728910
       5821.5170       2.1689190
       5822.2359       2.1946750
       5822.9548       2.1363880
       5823.6739       2.2946680
       5824.3928       2.2217190
       5825.1117       2.2853150
       5825.8307       2.3703790
       5826.5496       2.3122820
       5827.2685       2.2881990
       5827.9875       2.3308470
       5828.7065       2.3318410
       5829.4254       2.3005430
       5830.1443       2.3377290
       5830.8632       2.3702530
       5831.5823       2.4009490
       5832.3012       2.5908200
       5833.0201       2.5653270
       5833.7390       2.4508900
       5834.4580       2.5326360
       5835.1769       2.5882470
       5835.8959       2.5091780
       5836.6149       2.4571220
       5837.3338       2.5720270
       5838.0527       2.5700990
       5838.7716       2.6097720
       5839.4907       2.6839870
       5840.2096       2.6573640
       5840.9285       2.6324820
       5841.6474       2.6934430
       5842.3664       2.7329360
       5843.0853       2.6836100
       5843.8043       2.7509500
       5844.5232       2.6601830
       5845.2422       2.6086990
       5845.9611       2.5777870
       5846.6800       2.7860100
       5847.3991       2.7332720
       5848.1180       2.8470040
       5848.8369       2.8340620
       5849.5558       2.7470110
       5850.2748       2.7737900
       5850.9937       2.8099080
       5851.7127       2.7733650
       5852.4316       2.8052310
       5853.1506       2.7837600
       5853.8695       2.8106010
       5854.5884       2.8934510
       5855.3074       3.0060320
       5856.0264       2.9073450
       5856.7453       2.7993050
       5857.4642       2.8931690
       5858.1832       3.0241780
       5858.9021       2.8533140
       5859.6211       2.8955440
       5860.3400       3.0387780
       5861.0590       3.0053210
       5861.7779       2.9988050
       5862.4968       3.0149920
       5863.2158       3.0540150
       5863.9348       3.0547950
       5864.6537       3.0293630
       5865.3726       2.9511770
       5866.0915       2.8951940
       5866.8105       2.9834630
       5867.5295       3.1093810
       5868.2484       3.1310920
       5868.9674       2.9498580
       5869.6863       2.8641320
       5870.4052       2.9854570
       5871.1242       3.1032130
       5871.8432       3.0988520
       5872.5621       3.0656090
       5873.2810       3.0773200
       5873.9999       3.0239990
       5874.7189       3.0925190
       5875.4379       2.9697260
       5876.1568       2.8995110
       5876.8757       2.8820300
       5877.5947       3.0422320
       5878.3136       3.0623670
       5879.0326       3.0598550
       5879.7516       3.0997730
       5880.4705       3.2177690
       5881.1894       3.1846440
       5881.9083       3.1705000
       5882.6273       3.0625690
       5883.3463       3.1053450
       5884.0652       3.1397810
       5884.7841       3.0740790
       5885.5031       3.0494070
       5886.2220       3.1605290
       5886.9410       3.0969620
       5887.6599       2.9462210
       5888.3789       3.0602660
       5889.0978       3.0339570
       5889.8167       2.8912600
       5890.5357       2.8837520
       5891.2547       2.8491670
       5891.9736       2.8537840
       5892.6925       2.9862980
       5893.4115       3.1107700
       5894.1304       3.0700410
       5894.8494       3.0006500
       5895.5683       3.0951720
       5896.2873       3.2119520
       5897.0062       3.1689850
       5897.7251       3.0463530
       5898.4440       3.1528990
       5899.1631       3.0603460
       5899.8820       3.1623040
       5900.6009       3.1456600
       5901.3199       3.1449860
       5902.0388       3.1297860
       5902.7578       3.1340630
       5903.4767       3.0639380
       5904.1957       3.2789510
       5904.9146       3.1745480
       5905.6335       3.0965230
       5906.3524       3.0496800
       5907.0715       3.1476770
       5907.7904       3.1299400
       5908.5093       3.1473170
       5909.2282       3.1735200
       5909.9472       3.0811490
       5910.6662       3.1080070
       5911.3851       3.1302080
       5912.1041       3.0922140
       5912.8230       3.1602580
       5913.5419       3.1449100
       5914.2608       2.9886710
       5914.9799       2.7787730
       5915.6988       2.7956710
       5916.4177       2.9150510
       5917.1366       2.9578530
       5917.8556       3.0090210
       5918.5746       3.0452190
       5919.2935       3.0784250
       5920.0124       3.0609230
       5920.7314       2.9924280
       5921.4503       2.8984080
       5922.1692       2.9094440
       5922.8883       2.9384780
       5923.6072       2.9835630
       5924.3261       2.8886530
       5925.0450       3.0438880
       5925.7640       3.0152380
       5926.4830       3.0662800
       5927.2019       2.9349800
       5927.9208       3.0973310
       5928.6398       3.0399810
       5929.3587       3.0922790
       5930.0776       3.0257640
       5930.7966       2.9673400
       5931.5156       2.8504840
       5932.2345       3.0628590
       5932.9534       2.9968330
       5933.6723       2.9143170
       5934.3914       2.9841320
       5935.1103       3.0088900
       5935.8292       2.9460010
       5936.5482       3.0806340
       5937.2671       3.0497440
       5937.9860       2.9178580
       5938.7050       2.9442400
       5939.4240       2.9962250
       5940.1429       2.8185850
       5940.8618       2.8371500
       5941.5807       2.9744920
       5942.2998       3.0331240
       5943.0187       2.9950200
       5943.7376       2.9276120
       5944.4565       2.9920820
       5945.1755       2.9938740
       5945.8944       2.9726210
       5946.6134       2.9301640
       5947.3324       3.0226220
       5948.0513       2.9545400
       5948.7702       2.8881500
       5949.4891       2.9688210
       5950.2081       3.0282070
       5950.9271       2.9002120
       5951.6460       2.8813510
       5952.3649       2.6925070
       5953.0839       2.8275550
       5953.8028       2.7657960
       5954.5218       2.9350050
       5955.2407       2.9177080
       5955.9597       2.7163740
       5956.6786       2.8664600
       5957.3975       2.8912870
       5958.1165       2.7299560
       5958.8355       2.7609240
       5959.5544       2.7869870
       5960.2733       2.8580840
       5960.9923       2.9028120
       5961.7112       3.0489010
       5962.4302       2.8619640
       5963.1491       2.8237270
       5963.8681       2.8236220
       5964.5870       2.7874810
       5965.3059       2.7518480
       5966.0248       2.7455030
       5966.7439       2.7471280
       5967.4628       2.8386980
       5968.1817       2.7874110
       5968.9007       2.7418670
       5969.6196       2.7992900
       5970.3386       2.7605040
       5971.0575       2.8133960
       5971.7765       2.7294570
       5972.4954       2.7707610
       5973.2143       2.7563600
       5973.9332       2.7362010
       5974.6523       2.7074500
       5975.3712       2.7665580
       5976.0901       2.7788020
       5976.8090       2.8123600
       5977.5280       2.7606760
       5978.2470       2.7688530
       5978.9659       2.6849910
       5979.6849       2.6749830
       5980.4038       2.6707210
       5981.1227       2.7285280
       5981.8416       2.7735710
       5982.5607       2.8221690
       5983.2796       2.7646650
       5983.9985       2.7049730
       5984.7174       2.6888870
       5985.4364       2.6926310
       5986.1554       2.7418400
       5986.8743       2.6947350
       5987.5932       2.6877940
       5988.3122       2.7611100
       5989.0311       2.7317070
       5989.7500       2.7918280
       5990.4691       2.7751000
       5991.1880       2.7850150
       5991.9069       2.7504970
       5992.6258       2.6508750
       5993.3448       2.5400020
       5994.0638       2.6124220
       5994.7827       2.7093000
       5995.5016       2.6349550
       5996.2206       2.6730140
       5996.9395       2.6649370
       5997.6584       2.7062540
       5998.3774       2.6868590
       5999.0964       2.6460050
       5999.8153       2.6292690
       6000.5342       2.7909250
       6001.2532       2.7440170
       6001.9722       2.6955960
       6002.6911       2.5493360
       6003.4100       2.7035830
       6004.1290       2.6543990
       6004.8479       2.6528930
       6005.5668       2.5053210
       6006.2858       2.5157220
       6007.0048       2.5672850
       6007.7237       2.5416000
       6008.4426       2.5749930
       6009.1615       2.7684770
       6009.8806       2.6495520
       6010.5995       2.7103370
       6011.3184       2.6045730
       6012.0374       2.5629880
       6012.7563       2.4666480
       6013.4752       2.4941100
       6014.1942       2.4979450
       6014.9132       2.4338740
       6015.6321       2.4028740
       6016.3510       2.4565740
       6017.0699       2.5330770
       6017.7890       2.5436660
       6018.5079       2.5392560
       6019.2268       2.5038700
       6019.9457       2.4078620
       6020.6647       2.4338870
       6021.3836       2.4334530
       6022.1026       2.2778300
       6022.8216       2.2671710
       6023.5405       2.3230840
       6024.2594       2.3594400
       6024.9783       2.4004950
       6025.6974       2.4205490
       6026.4163       2.3116100
       6027.1352       2.3795030
       6027.8541       2.2960100
       6028.5731       2.3557760
       6029.2920       2.3258880
       6030.0110       2.3884940
       6030.7299       2.3403600
       6031.4489       2.3901120
       6032.1678       2.3137430
       6032.8867       2.3125060
       6033.6058       2.1603380
       6034.3247       2.3761950
       6035.0436       2.2961610
       6035.7625       2.2126400
       6036.4815       2.2801410
       6037.2004       2.3035680
       6037.9194       2.2250760
       6038.6383       2.3849940
       6039.3573       2.3302930
       6040.0762       2.2594150
       6040.7951       2.2544140
       6041.5141       2.3580610
       6042.2331       2.3040380
       6042.9520       2.2376420
       6043.6709       2.1735710
       6044.3899       2.1732500
       6045.1088       2.1657090
       6045.8278       2.1563330
       6046.5467       2.2516880
       6047.2657       2.1785810
       6047.9846       2.2110110
       6048.7035       2.2100420
       6049.4225       2.0806700
       6050.1415       2.1354320
       6050.8604       2.1732040
       6051.5793       2.1845890
       6052.2982       2.2252800
       6053.0172       2.1321170
       6053.7362       2.2523050
       6054.4551       2.1572380
       6055.1741       2.1726150
       6055.8930       2.1330040
       6056.6119       2.1974060
       6057.3309       2.1574920
       6058.0499       2.1066900
       6058.7688       2.0592290
       6059.4877       2.1919850
       6060.2066       2.0741080
       6060.9256       2.0608760
       6061.6446       2.0587960
       6062.3635       2.1386540
       6063.0824       2.0976710
       6063.8014       2.1425750
       6064.5203       2.1360880
       6065.2393       2.1606350
       6065.9583       2.0566940
       6066.6772       2.0934020
       6067.3961       2.1291110
       6068.1150       2.1397320
       6068.8340       2.1839100
       6069.5530       2.1963270
       6070.2719       2.1102020
       6070.9908       2.0645630
       6071.7098       2.1421570
       6072.4287       2.1269430
       6073.1477       2.0896780
       6073.8666       2.1353330
       6074.5856       2.1694650
       6075.3045       2.1238320
       6076.0234       2.1122090
       6076.7424       2.1516880
       6077.4614       2.1420780
       6078.1803       2.1176970
       6078.8992       2.0578350
       6079.6182       2.0834620
       6080.3371       2.1330060
       6081.0561       2.0786290
       6081.7750       2.1364070
       6082.4940       2.0878090
       6083.2129       2.2252550
       6083.9318       2.1274840
       6084.6507       2.1667790
       6085.3698       2.1595230
       6086.0887       2.1481660
       6086.8076       2.1212720
       6087.5266       2.2028060
       6088.2455       2.1588300
       6088.9645       2.1824140
       6089.6834       2.0599440
       6090.4024       2.1992110
       6091.1213       2.2025780
       6091.8402       2.1883470
       6092.5591       2.1568800
       6093.2782       2.2090050
       6093.9971       2.1528970
       6094.7160       2.1661430
       6095.4349       2.2251470
       6096.1539       2.1676370
       6096.8729       2.1621410
       6097.5918       2.1851260
       6098.3108       2.1619440
       6099.0297       2.1032120
       6099.7486       2.0508870
       6100.4675       2.0919400
       6101.1866       2.2042500
       6101.9055       2.1229820
       6102.6244       2.0909190
       6103.3433       2.1099150
       6104.0623       2.1630290
       6104.7813       2.1137120
       6105.5002       2.2017660
       6106.2191       2.2281490
       6106.9381       2.2492940
       6107.6570       2.2116320
       6108.3759       2.1680930
       6109.0950       2.1541390
       6109.8139       2.2622230
       6110.5328       2.2086700
       6111.2517       2.0769570
       6111.9707       2.1047960
       6112.6897       2.1426040
       6113.4086       1.9697700
       6114.1275       2.1411950
       6114.8465       2.1582960
       6115.5654       2.0277150
       6116.2843       2.0310310
       6117.0033       2.0161530
       6117.7223       2.1742870
       6118.4412       2.2684210
       6119.1601       2.1841530
       6119.8791       2.2491550
       6120.5981       2.2427270
       6121.3170       2.1403160
       6122.0359       2.1746800
       6122.7549       2.2113040
       6123.4738       2.1495530
       6124.1927       2.1661700
       6124.9117       2.1975790
       6125.6307       2.2232890
       6126.3496       2.3099530
       6127.0685       2.2850020
       6127.7874       2.2861580
       6128.5065       2.1723870
       6129.2254       2.1206190
       6129.9443       2.1766620
       6130.6632       2.1460750
       6131.3822       2.2648400
       6132.1011       2.3098320
       6132.8201       2.1545370
       6133.5391       2.3023730
       6134.2580       2.2958090
       6134.9769       2.3885560
       6135.6958       2.2521670
       6136.4149       2.1976230
       6137.1338       2.1813660
       6137.8527       2.2602860
       6138.5716       2.2638730
       6139.2906       2.2787040
       6140.0095       2.3146760
       6140.7285       2.2842780
       6141.4474       2.3068150
       6142.1664       2.2360240
       6142.8853       2.2585690
       6143.6042       2.3323960
       6144.3233       2.2409790
       6145.0422       2.3662100
       6145.7611       2.3380510
       6146.4800       2.3126730
       6147.1990       2.4430830
       6147.9179       2.3328830
       6148.6369       2.2402370
       6149.3558       2.3672940
       6150.0748       2.3910770
       6150.7937       2.3384170
       6151.5126       2.3737220
       6152.2316       2.4121850
       6152.9506       2.3551190
       6153.6695       2.2580230
       6154.3884       2.3123880
       6155.1074       2.3752150
       6155.8263       2.4422190
       6156.5453       2.4248080
       6157.2642       2.4004340
       6157.9832       2.3836410
       6158.7021       2.4315850
       6159.4210       2.4288510
       6160.1400       2.4609210
       6160.8590       2.3169230
       6161.5779       2.4162890
       6162.2968       2.4109020
       6163.0157       2.4515480
       6163.7347       2.3764870
       6164.4537       2.4088990
       6165.1726       2.4913480
       6165.8916       2.4267540
       6166.6105       2.4284010
       6167.3294       2.3949000
       6168.0484       2.3674270
       6168.7674       2.4326470
       6169.4863       2.4004210
       6170.2052       2.4861290
       6170.9241       2.4092740
       6171.6431       2.4352410
       6172.3621       2.5136490
       6173.0810       2.4949600
       6173.7999       2.5027060
       6174.5189       2.5181890
       6175.2378       2.5264360
       6175.9568       2.5454650
       6176.6758       2.5365480
       6177.3947       2.5232230
       6178.1136       2.4795230
       6178.8325       2.4621950
       6179.5515       2.4823960
       6180.2705       2.4309340
       6180.9894       2.4808130
       6181.7083       2.5325850
       6182.4273       2.5966110
       6183.1462       2.5224590
       6183.8652       2.5056200
       6184.5841       2.5158920
       6185.3031       2.6022250
       6186.0220       2.5672790
       6186.7409       2.5957770
       6187.4599       2.6461830
       6188.1789       2.6111660
       6188.8978       2.5066230
       6189.6167       2.6716590
       6190.3357       2.5745700
       6191.0546       2.5423290
       6191.7736       2.5352650
       6192.4925       2.5493680
       6193.2115       2.4377900
       6193.9304       2.5143740
       6194.6493       2.5316740
       6195.3682       2.6076260
       6196.0873       2.5727800
       6196.8062       2.6318380
       6197.5251       2.6071940
       6198.2441       2.5988170
       6198.9630       2.6272000
       6199.6820       2.6543480
       6200.4009       2.4776730
       6201.1199       2.5203090
       6201.8388       2.5531100
       6202.5577       2.5066610
       6203.2766       2.5747890
       6203.9957       2.5836510
       6204.7146       2.6186940
       6205.4335       2.6318480
       6206.1524       2.6194910
       6206.8714       2.5868330
       6207.5904       2.6334080
       6208.3093       2.6075140
       6209.0283       2.6796580
       6209.7472       2.5703740
       6210.4661       2.5739030
       6211.1850       2.5908810
       6211.9041       2.6431310
       6212.6230       2.4080600
       6213.3419       2.5608360
       6214.0608       2.4828010
       6214.7798       2.4609990
       6215.4988       2.5553890
       6216.2177       2.5866510
       6216.9366       2.6032700
       6217.6556       2.5777260
       6218.3745       2.4290810
       6219.0934       2.5253100
       6219.8125       2.5798450
       6220.5314       2.6132700
       6221.2503       2.5384280
       6221.9692       2.5776870
       6222.6882       2.5813440
       6223.4072       2.5825360
       6224.1261       2.5389170
       6224.8450       2.4788040
       6225.5640       2.3942900
       6226.2829       2.4964840
       6227.0018       2.5204030
       6227.7208       2.4847110
       6228.4398       2.4956430
       6229.1587       2.5104880
       6229.8776       2.5400380
       6230.5966       2.5377820
       6231.3156       2.3541720
       6232.0345       2.3054470
       6232.7534       2.5204720
       6233.4724       2.4761080
       6234.1913       2.3925920
       6234.9102       2.4389780
       6235.6292       2.4845460
       6236.3482       2.4211040
       6237.0671       2.4955800
       6237.7860       2.4863690
       6238.5049       2.4040820
       6239.2240       2.4077470
       6239.9429       2.4728830
       6240.6618       2.4280100
       6241.3808       2.4330100
       6242.0997       2.4917330
       6242.8186       2.5688500
       6243.5376       2.4924770
       6244.2566       2.3962270
       6244.9755       2.4116310
       6245.6944       2.5866360
       6246.4133       2.4848830
       6247.1323       2.4512410
       6247.8513       2.4554290
       6248.5702       2.5467810
       6249.2891       2.4167360
       6250.0081       2.4843350
       6250.7270       2.3085140
       6251.4460       2.4371690
       6252.1650       2.3840180
       6252.8839       2.4768330
       6253.6028       2.4411460
       6254.3217       2.3955420
       6255.0407       2.5050380
       6255.7597       2.5329560
       6256.4786       2.4516890
       6257.1975       2.3830790
       6257.9165       2.4807070
       6258.6354       2.5506720
       6259.3544       2.4026180
       6260.0733       2.3296830
       6260.7923       2.3836420
       6261.5112       2.4173850
       6262.2301       2.4876860
       6262.9491       2.4664970
       6263.6681       2.6111760
       6264.3870       2.4977670
       6265.1059       2.4045710
       6265.8249       2.4957720
       6266.5438       2.4649390
       6267.2628       2.3071310
       6267.9817       2.4114080
       6268.7007       2.4407770
       6269.4196       2.4872200
       6270.1385       2.3848670
       6270.8574       2.3333890
       6271.5765       2.2738180
       6272.2954       2.3669860
       6273.0143       2.3164810
       6273.7333       2.3476060
       6274.4522       2.3470470
       6275.1712       2.3469610
       6275.8901       2.3231240
       6276.6091       2.1995440
       6277.3280       2.1791690
       6278.0469       2.3096730
       6278.7658       2.2475730
       6279.4849       2.2832550
       6280.2038       2.2954430
       6280.9227       2.3438840
       6281.6416       2.3446110
       6282.3606       2.3102440
       6283.0796       2.3531850
       6283.7985       2.3823050
       6284.5175       2.2972120
       6285.2364       2.3258050
       6285.9553       2.3387360
       6286.6742       2.2601660
       6287.3933       2.2807000
       6288.1122       2.2703220
       6288.8311       2.2418510
       6289.5500       2.2127550
       6290.2690       2.1697380
       6290.9880       2.1869080
       6291.7069       2.2923960
       6292.4258       2.2375210
       6293.1448       2.3639540
       6293.8637       2.2846510
       6294.5826       2.2206110
       6295.3017       2.2128570
       6296.0206       2.1842920
       6296.7395       2.2612370
       6297.4584       2.2995300
       6298.1774       2.4273900
       6298.8964       2.3754390
       6299.6153       2.2605200
       6300.3342       2.3252750
       6301.0532       2.2032900
       6301.7721       2.1164640
       6302.4910       2.0658660
       6303.2100       2.2359670
       6303.9290       2.1521070
       6304.6479       2.2340190
       6305.3668       2.3005330
       6306.0858       2.2835030
       6306.8048       2.2084920
       6307.5237       2.2785020
       6308.2426       2.2107830
       6308.9616       2.1180480
       6309.6805       2.0740310
       6310.3994       2.1907590
       6311.1184       2.1191900
       6311.8374       2.0597270
       6312.5563       2.1332770
       6313.2752       2.1778250
       6313.9941       2.1076710
       6314.7132       2.0605910
       6315.4321       2.0925330
       6316.1510       2.1091020
       6316.8700       2.1291060
       6317.5889       2.1228610
       6318.3078       2.2189350
       6319.0268       2.2200810
       6319.7458       2.1758980
       6320.4647       2.0936350
       6321.1836       2.1493330
       6321.9025       2.1261410
       6322.6216       2.1805910
       6323.3405       2.1882650
       6324.0594       2.1978730
       6324.7783       2.0855370
       6325.4973       2.2467250
       6326.2162       2.1527150
       6326.9352       2.2196840
       6327.6541       2.2689940
       6328.3731       2.2308520
       6329.0920       2.0422940
       6329.8109       2.1922600
       6330.5300       2.2696980
       6331.2489       2.2468460
       6331.9678       2.1105070
       6332.6867       2.1939430
       6333.4057       2.1670510
       6334.1246       2.1714540
       6334.8436       2.1187120
       6335.5625       2.1244270
       6336.2815       2.1609030
       6337.0004       2.2148820
       6337.7193       2.2719130
       6338.4383       2.1619280
       6339.1573       2.1315090
       6339.8762       2.1856230
       6340.5951       2.1271880
       6341.3141       2.1044780
       6342.0330       2.1358230
       6342.7520       2.1208320
       6343.4709       2.1969750
       6344.1899       2.2311810
       6344.9088       2.1361600
       6345.6277       2.1438230
       6346.3467       2.1339310
       6347.0657       2.1039040
       6347.7846       2.1599630
       6348.5035       2.1694340
       6349.2224       2.1663090
       6349.9414       2.1710580
       6350.6604       2.1942430
       6351.3793       2.1644260
       6352.0983       2.1739410
       6352.8172       2.1605560
       6353.5361       2.1876860
       6354.2551       2.1197400
       6354.9741       2.2565600
       6355.6930       2.1954090
       6356.4119       2.1294300
       6357.1308       2.1742620
       6357.8498       2.2078760
       6358.5688       2.1714020
       6359.2877       2.1139540
       6360.0066       2.1758010
       6360.7256       2.1885260
       6361.4445       2.2214480
       6362.1635       2.2305240
       6362.8825       2.1939070
       6363.6014       2.2031770
       6364.3203       2.1316380
       6365.0392       2.2705550
       6365.7582       2.2471250
       6366.4772       2.1696090
       6367.1961       2.1886420
       6367.9150       2.2437470
       6368.6340       2.2377840
       6369.3529       2.1409550
       6370.0719       2.1319630
       6370.7908       2.2466360
       6371.5098       2.2834460
       6372.2287       2.2185090
       6372.9476       2.1574710
       6373.6666       2.1808170
       6374.3856       2.1986560
       6375.1045       2.1823500
       6375.8234       2.1868470
       6376.5424       2.1961950
       6377.2613       2.2439210
       6377.9803       2.2672800
       6378.6992       2.3085900
       6379.4182       2.2200890
       6380.1371       2.1556630
       6380.8560       2.1937780
       6381.5749       2.2299400
       6382.2940       2.2124190
       6383.0129       2.2678940
       6383.7318       2.3082650
       6384.4508       2.2614720
       6385.1697       2.1433080
       6385.8887       2.1715000
       6386.6076       2.1985610
       6387.3266       2.1706040
       6388.0455       2.0654820
       6388.7644       2.2427530
       6389.4833       2.2377780
       6390.2024       2.2601230
       6390.9213       2.2404770
       6391.6402       2.2602410
       6392.3591       2.1861160
       6393.0781       2.2015200
       6393.7971       2.2439860
       6394.5160       2.2564150
       6395.2350       2.2384680
       6395.9539       2.2863770
       6396.6728       2.2632590
       6397.3917       2.2425170
       6398.1108       2.2519650
       6398.8297       2.3072430
       6399.5486       2.3101330
       6400.2675       2.1764700
       6400.9865       2.1860030
       6401.7055       2.2696820
       6402.4244       2.2614470
       6403.1433       2.2756430
       6403.8623       2.2412980
       6404.5812       2.2852180
       6405.3001       2.3712120
       6406.0192       2.3935590
       6406.7381       2.3532460
       6407.4570       2.2218560
       6408.1759       2.2714010
       6408.8949       2.2726710
       6409.6139       2.2994140
       6410.3328       2.3208300
       6411.0517       2.2501780
       6411.7707       2.1765960
       6412.4896       2.3616490
       6413.2085       2.3442550
       6413.9275       2.3174390
       6414.6465       2.3166870
       6415.3654       2.3372310
       6416.0843       2.3090620
       6416.8033       2.3244350
       6417.5223       2.2777160
       6418.2412       2.3790540
       6418.9601       2.4068590
       6419.6791       2.4902950
       6420.3980       2.3413390
       6421.1169       2.3596340
       6421.8359       2.3268840
       6422.5549       2.3992280
       6423.2738       2.3718670
       6423.9927       2.4100100
       6424.7116       2.4654700
       6425.4307       2.4645170
       6426.1496       2.4793210
       6426.8685       2.3893850
       6427.5875       2.4199270
       6428.3064       2.4893570
       6429.0253       2.3580280
       6429.7443       2.3887070
       6430.4633       2.3765220
       6431.1822       2.3700100
       6431.9011       2.4779920
       6432.6200       2.5276180
       6433.3391       2.4699200
       6434.0580       2.4672590
       6434.7769       2.4871230
       6435.4958       2.4942950
       6436.2148       2.4955850
       6436.9337       2.4756190
       6437.6527       2.4868910
       6438.3717       2.3987370
       6439.0906       2.4081150
       6439.8095       2.5780310
       6440.5284       2.5985750
       6441.2475       2.5334850
       6441.9664       2.5969330
       6442.6853       2.5519530
       6443.4042       2.6049400
       6444.1232       2.5423350
       6444.8421       2.5401600
       6445.5611       2.5660530
       6446.2800       2.6522160
       6446.9990       2.5805170
       6447.7179       2.6227660
       6448.4368       2.5615830
       6449.1559       2.5301150
       6449.8748       2.6363040
       6450.5937       2.6840880
       6451.3126       2.5251780
       6452.0316       2.6151710
       6452.7505       2.6115270
       6453.4695       2.7640240
       6454.1884       2.7111130
       6454.9074       2.7314150
       6455.6263       2.7445840
       6456.3452       2.7456280
       6457.0642       2.6826960
       6457.7832       2.7190090
       6458.5021       2.7309940
       6459.2210       2.7538220
       6459.9400       2.6025750
       6460.6589       2.7093090
       6461.3779       2.8196540
       6462.0968       2.7015750
       6462.8158       2.7884530
       6463.5347       2.8123420
       6464.2536       2.7353240
       6464.9726       2.7495770
       6465.6916       2.6887260
       6466.4105       2.7112690
       6467.1294       2.7347200
       6467.8483       2.7110970
       6468.5673       2.7706670
       6469.2863       2.7842000
       6470.0052       2.8025850
       6470.7242       2.7649700
       6471.4431       2.7186560
       6472.1620       2.7824660
       6472.8810       2.7221390
       6473.6000       2.6131000
       6474.3189       2.6708620
       6475.0378       2.6466680
       6475.7567       2.6521090
       6476.4757       2.7119880
       6477.1947       2.7429300
       6477.9136       2.7345650
       6478.6325       2.7430650
       6479.3515       2.6650300
       6480.0704       2.6550410
       6480.7894       2.7191980
       6481.5084       2.7875010
       6482.2273       2.6718550
       6482.9462       2.7230430
       6483.6651       2.6827210
       6484.3841       2.6825260
       6485.1031       2.6457290
       6485.8220       2.7504390
       6486.5409       2.7429020
       6487.2599       2.7813830
       6487.9788       2.7519420
       6488.6978       2.7647670
       6489.4167       2.6717390
       6490.1357       2.7768950
       6490.8546       2.7037140
       6491.5735       2.7200560
       6492.2925       2.7308140
       6493.0115       2.7205840
       6493.7304       2.6998580
       6494.4493       2.7494920
       6495.1683       2.6988930
       6495.8872       2.6705070
       6496.6062       2.7810580
       6497.3251       2.7774250
       6498.0441       2.6513580
       6498.7630       2.6901740
       6499.4819       2.6617530
       6500.2008       2.5643940
       6500.9199       2.6682010
       6501.6388       2.7753960
       6502.3577       2.7727780
       6503.0767       2.7140810
       6503.7956       2.6308210
       6504.5146       2.6410010
       6505.2335       2.6937750
       6505.9525       2.6800930
       6506.6714       2.6668360
       6507.3903       2.6474440
       6508.1092       2.7545280
       6508.8283       2.7345670
       6509.5472       2.7031410
       6510.2661       2.6697960
       6510.9850       2.6819920
       6511.7040       2.6951210
       6512.4230       2.7183150
       6513.1419       2.7140080
       6513.8609       2.7432530
       6514.5798       2.7278430
       6515.2987       2.5731170
       6516.0176       2.5956700
       6516.7367       2.7376570
       6517.4556       2.6615830
       6518.1745       2.6667190
       6518.8934       2.6355740
       6519.6124       2.6603640
       6520.3314       2.6606280
       6521.0503       2.7778520
       6521.7692       2.6375880
       6522.4882       2.6719170
       6523.2071       2.6665560
       6523.9260       2.6430650
       6524.6451       2.6358670
       6525.3640       2.6571310
       6526.0829       2.6714280
       6526.8018       2.7600670
       6527.5208       2.7637970
       6528.2398       2.6692080
       6528.9587       2.7018130
       6529.6776       2.7395590
       6530.3966       2.7577550
       6531.1155       2.7281380
       6531.8344       2.6747730
       6532.5534       2.6630420
       6533.2724       2.5896100
       6533.9913       2.6789530
       6534.7102       2.7376330
       6535.4291       2.7251150
       6536.1482       2.7366050
       6536.8671       2.7438720
       6537.5860       2.7247270
       6538.3050       2.7885930
       6539.0239       2.8877180
       6539.7428       2.7390100
       6540.4618       2.7614710
       6541.1808       2.8290320
       6541.8997       2.8390740
       6542.6186       2.8532290
       6543.3375       2.8307600
       6544.0566       2.7332700
       6544.7755       2.7779310
       6545.4944       2.7666620
       6546.2133       2.7695370
       6546.9323       2.8240460
       6547.6512       2.7943320
       6548.3702       2.8160280
       6549.0892       2.7414740
       6549.8081       2.7744300
       6550.5270       2.9096630
       6551.2459       2.8750340
       6551.9649       2.8894590
       6552.6839       2.8680510
       6553.4028       2.7122410
       6554.1217       2.8552190
       6554.8407       2.8764580
       6555.5596       2.7620240
       6556.2786       2.8614310
       6556.9975       2.9155070
       6557.7165       2.8879630
       6558.4354       2.8153750
       6559.1543       2.8676470
       6559.8733       2.8621190
       6560.5923       2.9139520
       6561.3112       2.8863260
       6562.0301       2.9649170
       6562.7491       2.8880650
       6563.4680       2.8662860
       6564.1870       2.8364350
       6564.9059       2.8761360
       6565.6249       2.8541450
       6566.3438       2.8616730
       6567.0627       2.8295170
       6567.7816       2.8690620
       6568.5007       2.7893410
       6569.2196       2.8689350
       6569.9385       2.9020990
       6570.6575       2.8843600
       6571.3764       2.9474070
       6572.0954       2.8692940
       6572.8143       2.8432180
       6573.5333       2.8848310
       6574.2522       2.8685390
       6574.9711       2.8954140
       6575.6900       2.9417560
       6576.4091       2.9985360
       6577.1280       2.9923000
       6577.8469       2.9100610
       6578.5658       2.9279780
       6579.2848       2.8321030
       6580.0038       2.8608930
       6580.7227       2.9375640
       6581.4417       2.9619790
       6582.1606       2.9176780
       6582.8795       2.8390400
       6583.5984       2.8232400
       6584.3175       2.8390060
       6585.0364       2.8610520
       6585.7553       2.8817370
       6586.4742       2.8418760
       6587.1932       2.8784170
       6587.9122       2.8615690
       6588.6311       2.9185700
       6589.3500       2.8882960
       6590.0690       2.8036920
       6590.7879       2.7920190
       6591.5068       2.9039000
       6592.2259       2.9530200
       6592.9448       2.9600680
       6593.6637       2.8920450
       6594.3826       2.7886210
       6595.1016       2.7260740
       6595.8206       2.8202230
       6596.5395       2.8779360
       6597.2584       2.8463740
       6597.9774       2.7821310
       6598.6963       2.6904960
       6599.4152       2.6907800
       6600.1342       2.7635830
       6600.8532       2.7458060
       6601.5721       2.7865560
       6602.2910       2.8633110
       6603.0100       2.8877300
       6603.7290       2.8172870
       6604.4479       2.8329680
       6605.1668       2.7292920
       6605.8858       2.7367690
       6606.6047       2.7617650
       6607.3236       2.7643120
       6608.0426       2.7890430
       6608.7616       2.7986010
       6609.4805       2.7951020
       6610.1994       2.8299710
       6610.9183       2.7606020
       6611.6374       2.7684700
       6612.3563       2.8931410
       6613.0752       2.7785340
       6613.7942       2.6722250
       6614.5131       2.7364540
       6615.2320       2.7615140
       6615.9510       2.8313780
       6616.6700       2.8298480
       6617.3889       2.7999130
       6618.1078       2.7992090
       6618.8267       2.6844710
       6619.5458       2.7843250
       6620.2647       2.7725280
       6620.9836       2.7881110
       6621.7025       2.7735130
       6622.4215       2.8590170
       6623.1404       2.8551180
       6623.8594       2.7983270
       6624.5784       2.7717360
       6625.2973       2.8294260
       6626.0162       2.7585370
       6626.7351       2.8007210
       6627.4542       2.7913280
       6628.1731       2.8166760
       6628.8920       2.6988780
       6629.6109       2.7784490
       6630.3299       2.8789330
       6631.0488       2.8016450
       6631.7678       2.8176980
       6632.4867       2.7722150
       6633.2057       2.7033740
       6633.9246       2.8254730
       6634.6435       2.7967250
       6635.3626       2.7791620
       6636.0815       2.7545700
       6636.8004       2.8091180
       6637.5193       2.7763670
       6638.2383       2.7733720
       6638.9572       2.7533100
       6639.6762       2.7872410
       6640.3951       2.6980100
       6641.1141       2.8559310
       6641.8330       2.8101870
       6642.5519       2.7175140
       6643.2709       2.6873610
       6643.9899       2.7504830
       6644.7088       2.7063320
       6645.4277       2.7419440
       6646.1467       2.6686240
       6646.8656       2.7224960
       6647.5846       2.7251940
       6648.3035       2.8122390
       6649.0225       2.8382620
       6649.7414       2.7644550
       6650.4603       2.8412730
       6651.1793       2.8305440
       6651.8983       2.7953460
       6652.6172       2.8704750
       6653.3361       2.8337320
       6654.0550       2.8469810
       6654.7740       2.8393040
       6655.4930       2.8294920
       6656.2119       2.7811760
       6656.9309       2.7815890
       6657.6498       2.8461440
       6658.3687       2.8562130
       6659.0877       2.9027300
       6659.8067       2.7770790
       6660.5256       2.7132890
       6661.2445       2.7520020
       6661.9634       2.8341000
       6662.6824       2.7709000
       6663.4014       2.7314140
       6664.1203       2.6678840
       6664.8392       2.7857910
       6665.5582       2.8086720
       6666.2771       2.8334390
       6666.9961       2.7843260
       6667.7151       2.7573690
       6668.4340       2.8337790
       6669.1529       2.7474550
       6669.8718       2.8050540
       6670.5908       2.8433950
       6671.3098       2.7964330
       6672.0287       2.8108340
       6672.7476       2.8266390
       6673.4666       2.7850240
       6674.1855       2.7674760
       6674.9045       2.8749020
       6675.6234       2.7533020
       6676.3424       2.8050780
       6677.0613       2.7076460
       6677.7802       2.8365310
       6678.4992       2.7699850
       6679.2182       2.7866260
       6679.9371       2.7857200
       6680.6560       2.8194460
       6681.3750       2.7444480
       6682.0939       2.6989260
       6682.8129       2.7314130
       6683.5318       2.6559370
       6684.2508       2.6743200
       6684.9697       2.7470030
       6685.6886       2.7669760
       6686.4075       2.6774770
       6687.1266       2.6883200
       6687.8455       2.6788630
       6688.5644       2.7089980
       6689.2834       2.7098120
       6690.0023       2.6757300
       6690.7213       2.7153500
       6691.4402       2.7747470
       6692.1592       2.7624400
       6692.8781       2.7426400
       6693.5970       2.7484330
       6694.3159       2.6948250
       6695.0350       2.7065420
       6695.7539       2.6758200
       6696.4728       2.6502850
       6697.1917       2.6518280
       6697.9107       2.6369060
       6698.6297       2.6076220
       6699.3486       2.6791150
       6700.0676       2.7152740
       6700.7865       2.6126820
       6701.5054       2.5219680
       6702.2243       2.5873710
       6702.9434       2.5987910
       6703.6623       2.6288780
       6704.3812       2.6498950
       6705.1001       2.6190980
       6705.8191       2.5991100
       6706.5381       2.5440550
       6707.2570       2.5961570
       6707.9759       2.6321320
       6708.6949       2.6014180
       6709.4138       2.4838460
       6710.1327       2.5458180
       6710.8518       2.5852260
       6711.5707       2.5892430
       6712.2896       2.5634840
       6713.0085       2.5209250
       6713.7275       2.4950470
       6714.4465       2.5448280
       6715.1654       2.5651440
       6715.8843       2.5909990
       6716.6033       2.4734900
       6717.3222       2.4945740
       6718.0411       2.5976710
       6718.7601       2.5743540
       6719.4791       2.4697250
       6720.1980       2.5222230
       6720.9169       2.4602680
       6721.6359       2.4598970
       6722.3549       2.4779550
       6723.0738       2.5018170
       6723.7927       2.5130390
       6724.5117       2.5793420
       6725.2306       2.4471480
       6725.9495       2.4918850
       6726.6685       2.5101880
       6727.3875       2.4952570
       6728.1064       2.4940800
       6728.8253       2.3971290
       6729.5442       2.4881550
       6730.2633       2.5458820
       6730.9822       2.5897840
       6731.7011       2.5792090
       6732.4200       2.4551340
       6733.1390       2.5474240
       6733.8579       2.4707970
       6734.5769       2.5258580
       6735.2959       2.5570940
       6736.0148       2.5039270
       6736.7337       2.4934740
       6737.4526       2.5479260
       6738.1717       2.5348020
       6738.8906       2.5706950
       6739.6095       2.3778950
       6740.3284       2.4909560
       6741.0474       2.4652570
       6741.7663       2.4679280
       6742.4853       2.5337670
       6743.2042       2.6286250
       6743.9232       2.6593200
       6744.6421       2.5796020
       6745.3610       2.4755160
       6746.0801       2.5500390
       6746.7990       2.5388720
       6747.5179       2.5472410
       6748.2368       2.6016860
       6748.9558       2.6611190
       6749.6747       2.6587750
       6750.3937       2.5798770
       6751.1126       2.5209680
       6751.8316       2.5879200
       6752.5505       2.4948760
       6753.2694       2.4357380
       6753.9884       2.5424710
       6754.7074       2.5883040
       6755.4263       2.5499890
       6756.1452       2.5645300
       6756.8642       2.5979790
       6757.5831       2.5950390
       6758.3021       2.5885410
       6759.0210       2.5932230
       6759.7400       2.6062060
       6760.4589       2.6228750
       6761.1778       2.5403540
       6761.8968       2.4138920
       6762.6158       2.5041720
       6763.3347       2.5689370
       6764.0536       2.5341920
       6764.7725       2.6157060
       6765.4915       2.6672010
       6766.2105       2.6331390
       6766.9294       2.5659350
       6767.6484       2.5857610
       6768.3673       2.6341150
       6769.0862       2.6015970
       6769.8052       2.5840610
       6770.5242       2.5738960
       6771.2431       2.6053140
       6771.9620       2.5590630
       6772.6809       2.5919890
       6773.3999       2.5097650
       6774.1189       2.4813380
       6774.8378       2.6430790
       6775.5567       2.6700290
       6776.2757       2.6310460
       6776.9946       2.6786160
       6777.7136       2.6478100
       6778.4326       2.6730680
       6779.1515       2.6346550
       6779.8704       2.6384650
       6780.5893       2.5673670
       6781.3083       2.4467240
       6782.0273       2.5172800
       6782.7462       2.6763350
       6783.4651       2.6153830
       6784.1841       2.6589660
       6784.9030       2.6145180
       6785.6220       2.6741940
       6786.3409       2.6170370
       6787.0599       2.5777460
       6787.7788       2.4795300
       6788.4977       2.5313130
       6789.2167       2.6003530
       6789.9357       2.6229750
       6790.6546       2.5655250
       6791.3735       2.6438000
       6792.0925       2.5162460
       6792.8114       2.6167160
       6793.5304       2.5278040
       6794.2493       2.6000370
       6794.9683       2.5760620
       6795.6872       2.5987720
       6796.4061       2.6269310
       6797.1250       2.6167270
       6797.8441       2.6156620
       6798.5630       2.6530690
       6799.2819       2.6003490
       6800.0009       2.6064730
       6800.7198       2.5328100
       6801.4388       2.5785590
       6802.1577       2.5854930
       6802.8767       2.6397780
       6803.5956       2.6296510
       6804.3145       2.5837230
       6805.0334       2.5264380
       6805.7525       2.5406120
       6806.4714       2.5579190
       6807.1903       2.5654070
       6807.9092       2.6056440
       6808.6282       2.5897960
       6809.3472       2.5514110
       6810.0661       2.5836000
       6810.7851       2.5842710
       6811.5040       2.5708130
       6812.2229       2.4185580
       6812.9418       2.5066130
       6813.6609       2.5718920
       6814.3798       2.4798630
       6815.0987       2.4864950
       6815.8176       2.5711800
       6816.5366       2.4847520
       6817.2556       2.4531760
       6817.9745       2.4156930
       6818.6934       2.4778100
       6819.4124       2.4882520
       6820.1313       2.5289500
       6820.8502       2.3962660
       6821.5693       2.3854220
       6822.2882       2.4205530
       6823.0071       2.4383620
       6823.7260       2.4899550
       6824.4450       2.4584690
       6825.1640       2.4409770
       6825.8829       2.4978200
       6826.6018       2.5027320
       6827.3208       2.3937230
       6828.0397       2.3631100
       6828.7586       2.4073520
       6829.4776       2.3986800
       6830.1966       2.3777620
       6830.9155       2.3645140
       6831.6344       2.4213780
       6832.3534       2.4765620
       6833.0724       2.4401490
       6833.7913       2.3443760
       6834.5102       2.3467920
       6835.2292       2.2986490
       6835.9481       2.2245020
       6836.6670       2.2991500
       6837.3860       2.3333480
       6838.1050       2.3249220
       6838.8239       2.3355440
       6839.5428       2.3275670
       6840.2617       2.3080910
       6840.9808       2.3596130
       6841.6997       2.3625160
       6842.4186       2.3870270
       6843.1376       2.3956870
       6843.8565       2.3603020
       6844.5754       2.2963450
       6845.2944       2.3110780
       6846.0134       2.3048260
       6846.7323       2.3255890
       6847.4512       2.3273740
       6848.1701       2.2739630
       6848.8891       2.2740320
       6849.6081       2.2543970
       6850.3270       2.2896540
       6851.0459       2.2664200
       6851.7649       2.2536440
       6852.4838       2.2635730
       6853.2028       2.1891920
       6853.9218       2.1550040
       6854.6407       2.2440640
       6855.3596       2.2313920
       6856.0785       2.2573670
       6856.7975       2.2350210
       6857.5165       2.0605690
       6858.2354       1.7800730
       6858.9543       1.8071320
       6859.6733       2.2316470
       6860.3922       2.2904170
       6861.1112       2.2637780
       6861.8301       2.2933280
       6862.5491       2.2428150
       6863.2680       2.1254830
       6863.9869       2.1071240
       6864.7059       2.1261520
       6865.4249       2.1024340
       6866.1438       1.8134390
       6866.8627       1.6793980
       6867.5817       1.5747280
       6868.3006       1.4856380
       6869.0196       1.4311740
       6869.7385       1.4956310
       6870.4575       1.5230740
       6871.1764       1.6293060
       6871.8953       1.6587830
       6872.6142       1.6452240
       6873.3333       1.6131560
       6874.0522       1.6866810
       6874.7711       1.7368210
       6875.4901       1.7999690
       6876.2090       1.7390690
       6876.9280       1.7806460
       6877.6469       1.9082860
       6878.3659       1.9798270
       6879.0848       1.9743820
       6879.8037       2.0680990
       6880.5226       2.1431010
       6881.2417       2.1665520
       6881.9606       1.9986590
       6882.6795       2.0471160
       6883.3984       2.0197050
       6884.1174       1.9835450
       6884.8364       1.9925680
       6885.5553       1.9826560
       6886.2743       2.0194490
       6886.9932       2.0532540
       6887.7121       1.9572640
       6888.4310       1.8974780
       6889.1501       1.8556870
       6889.8690       2.0667880
       6890.5879       1.9316690
       6891.3068       1.9997010
       6892.0258       2.0302830
