Units are: observed wavelength (Ang), observed flux (10^-15 erg/s/cm^2/Ang)
       3472.0000      0.29298140
       3473.4700       1.2351830
       3474.9400      0.56480880
       3476.4100     -0.10531880
       3477.8800    -0.013153920
       3479.3500     0.079816370
       3480.8200     0.029889650
       3482.2900    -0.030860410
       3483.7600    0.0010219210
       3485.2300      0.17551290
       3486.7000     0.027747190
       3488.1700    -0.051002090
       3489.6400    0.0067498550
       3491.1100     -0.17668010
       3492.5800    -0.074065860
       3494.0500      0.15370050
       3495.5200      0.30052030
       3496.9900      0.13974400
       3498.4600    -0.073555690
       3499.9300    -0.048118350
       3501.4000     0.069813100
       3502.8700     0.041025040
       3504.3400   -0.0083089480
       3505.8100   -0.0095872950
       3507.2800   -0.0049263220
       3508.7500      0.37404570
       3510.2200       1.0389660
       3511.6900      0.78911610
       3513.1600     0.068265520
       3514.6300     -0.12735310
       3516.1000    -0.023460730
       3517.5700     0.086286290
       3519.0400     0.020009870
       3520.5100     0.023740570
       3521.9800    -0.047518800
       3523.4500      0.73564910
       3524.9200      0.86072930
       3526.3900      0.10311960
       3527.8600    -0.087187450
       3529.3300    -0.051399270
       3530.8000      0.73508450
       3532.2700       1.1593670
       3533.7400      0.40552270
       3535.2100     -0.11380420
       3536.6800   -0.0016848620
       3538.1500     0.033673970
       3539.6200    -0.042959740
       3541.0900  -8.1814150e-05
       3542.5600     0.047909210
       3544.0300    -0.013383440
       3545.5000      0.27197050
       3546.9700      0.25433050
       3548.4400     -0.28221420
       3549.9100     -0.41207860
       3551.3800       15.814540
       3552.8500       44.215460
       3554.3200       23.070780
       3555.7900     -0.80258210
       3557.2600     -0.38559840
       3558.7300      0.11442730
       3560.2000      0.16338130
       3561.6700      0.11008570
       3563.1400    -0.056491710
       3564.6100    -0.026070460
       3566.0800     0.094328590
       3567.5500     0.096302060
       3569.0200     0.046512630
       3570.4900    0.0098587100
       3571.9600    -0.022773460
       3573.4300      0.20787200
       3574.9000      0.74876110
       3576.3700      0.43715280
       3577.8400    -0.036636270
       3579.3100    -0.031881080
       3580.7800     0.037978260
       3582.2500    -0.086477980
       3583.7200      0.25416750
       3585.1900      0.50374920
       3586.6600      0.10044220
       3588.1300    -0.036445940
       3589.6000   -0.0089281700
       3591.0700    -0.044808030
       3592.5400     0.041458310
       3594.0100     0.056155170
       3595.4800    -0.032561340
       3596.9500      0.12471620
       3598.4200      0.23519070
       3599.8900      0.16184200
       3601.3600      0.12463860
       3602.8300     0.090682540
       3604.3000     0.011433090
       3605.7700     0.052193280
       3607.2400    -0.057333050
       3608.7100      0.17144280
       3610.1800      0.59626330
       3611.6500      0.28340770
       3613.1200     0.067300750
       3614.5900      0.11573380
       3616.0600      0.12333780
       3617.5300    -0.044395250
       3619.0000     -0.18293010
       3620.4700     -0.13664260
       3621.9400     0.030016180
       3623.4100      0.52531180
       3624.8800      0.36819400
       3626.3500     0.015818850
       3627.8200      0.54390540
       3629.2900      0.57406010
       3630.7600      0.13707680
       3632.2300     0.093548180
       3633.7000      0.13737900
       3635.1700     0.073528090
       3636.6400    -0.048597880
       3638.1100    -0.073336200
       3639.5800    -0.019544710
       3641.0500      0.24971480
       3642.5200      0.44135880
       3643.9900      0.57489230
       3645.4600      0.89790020
       3646.9300       1.0593560
       3648.4000      0.41784920
       3649.8700     -0.16177540
       3651.3400     -0.17561490
       3652.8100    0.0036743970
       3654.2800      0.29100030
       3655.7500      0.19413900
       3657.2200     0.066166520
       3658.6900      0.14595020
       3660.1600     0.020357000
       3661.6300     0.012271810
       3663.1000      0.12730110
       3664.5700     0.059750600
       3666.0400      0.18983560
       3667.5100      0.20098980
       3668.9800      0.10314710
       3670.4500      0.14783960
       3671.9200     0.040262140
       3673.3900     0.048792210
       3674.8600      0.24811150
       3676.3300      0.19515770
       3677.8000     0.081870450
       3679.2700      0.27301170
       3680.7400      0.31925960
       3682.2100     0.090046410
       3683.6800     0.067415720
       3685.1500      0.28739520
       3686.6200      0.46066880
       3688.0900      0.29420330
       3689.5600   -0.0045678330
       3691.0300   -0.0071255910
       3692.5000      0.12039080
       3693.9700      0.16793130
       3695.4400     0.052401590
       3696.9100      0.25060440
       3698.3800      0.45462660
       3699.8500      0.18083470
       3701.3200    -0.071702440
       3702.7900     -0.17760330
       3704.2600   0.00037161060
       3705.7300    -0.025220710
       3707.2000     -0.20510370
       3708.6700    -0.024184680
       3710.1400      0.13414400
       3711.6101      0.16775860
       3713.0800      0.10796490
       3714.5500     -0.10084680
       3716.0200     0.060882180
       3717.4900      0.60717540
       3718.9600      0.54171430
       3720.4300      0.16550490
       3721.9000     0.077110360
       3723.3700     0.064513000
       3724.8400      0.11851530
       3726.3100      0.34172370
       3727.7800      0.35929570
       3729.2500      0.25561770
       3730.7200      0.18247770
       3732.1900      0.17032600
       3733.6600      0.32629350
       3735.1300      0.20750850
       3736.6000      0.10747740
       3738.0700     0.033193100
       3739.5400    -0.029560840
       3741.0100      0.46276300
       3742.4800      0.55328330
       3743.9500      0.53281740
       3745.4200      0.39312240
       3746.8900     0.018983430
       3748.3600     0.072272370
       3749.8300      0.15301560
       3751.3000      0.21470040
       3752.7700      0.19053190
       3754.2400      0.14221420
       3755.7100      0.13381510
       3757.1800      0.19875510
       3758.6500      0.22846670
       3760.1200      0.15253420
       3761.5900     0.096427720
       3763.0600      0.10000450
       3764.5300     0.097505190
       3766.0000      0.14114460
       3767.4700      0.32780300
       3768.9400      0.40350460
       3770.4100      0.26918820
       3771.8800      0.15511970
       3773.3500     0.058607080
       3774.8200     0.061665450
       3776.2900      0.15345040
       3777.7600      0.23203650
       3779.2300      0.26561760
       3780.7000      0.23840290
       3782.1700      0.37542770
       3783.6400      0.37085740
       3785.1100     0.048899290
       3786.5800     0.034845660
       3788.0500      0.22912750
       3789.5200      0.20325930
       3790.9900      0.22535220
       3792.4600      0.19552340
       3793.9300     0.070179420
       3795.4000      0.11478530
       3796.8700      0.37486670
       3798.3400      0.47163890
       3799.8100      0.23154480
       3801.2800      0.15957300
       3802.7500      0.42640680
       3804.2200      0.43116840
       3805.6900      0.19889380
       3807.1600      0.19805150
       3808.6300      0.16438010
       3810.1000     0.057276560
       3811.5700     0.039601850
       3813.0400      0.10279970
       3814.5100      0.17304070
       3815.9800      0.21655910
       3817.4500     0.081043410
       3818.9200     0.073959040
       3820.3900      0.14649470
       3821.8600     0.090060260
       3823.3300     0.069506490
       3824.8000      0.12178010
       3826.2700      0.23617230
       3827.7400      0.25304740
       3829.2100      0.14121850
       3830.6800      0.18221310
       3832.1500      0.32714950
       3833.6200      0.25345720
       3835.0900      0.14700940
       3836.5600      0.11673130
       3838.0300      0.21099180
       3839.5000      0.18083240
       3840.9700      0.17436000
       3842.4400      0.16714780
       3843.9100     0.058715050
       3845.3800      0.12307070
       3846.8500      0.13379890
       3848.3200     0.085904260
       3849.7900     0.056984430
       3851.2600      0.14732870
       3852.7300      0.19946600
       3854.2000      0.23337080
       3855.6700     0.099486350
       3857.1400     0.089389620
       3858.6100      0.24277810
       3860.0800      0.18381900
       3861.5500      0.10316870
       3863.0200      0.21083930
       3864.4900      0.27536210
       3865.9600      0.14220690
       3867.4300      0.16337790
       3868.9000      0.28884220
       3870.3700      0.33942640
       3871.8400      0.31826710
       3873.3100      0.23271850
       3874.7800      0.23864750
       3876.2500      0.25054480
       3877.7200      0.24214200
       3879.1900      0.19892140
       3880.6600      0.21845090
       3882.1300      0.29940880
       3883.6000      0.30376860
       3885.0700      0.32650340
       3886.5400      0.25388530
       3888.0100      0.19688740
       3889.4800      0.17655230
       3890.9500      0.24638120
       3892.4200      0.49658940
       3893.8900      0.29902740
       3895.3600      0.24451920
       3896.8300      0.45478000
       3898.3000      0.28964700
       3899.7700      0.18973040
       3901.2400      0.24768850
       3902.7100      0.29502440
       3904.1800      0.36133860
       3905.6500      0.40610740
       3907.1200      0.31536320
       3908.5900      0.18270830
       3910.0600      0.21229830
       3911.5300      0.28392400
       3913.0000      0.22403410
       3914.4700      0.28536250
       3915.9400      0.41954020
       3917.4100      0.38160480
       3918.8800      0.28747690
       3920.3500      0.31289680
       3921.8200      0.41947270
       3923.2900      0.43788810
       3924.7600      0.43522910
       3926.2300      0.35361220
       3927.7000      0.32959150
       3929.1700      0.39757720
       3930.6400      0.37040350
       3932.1100      0.37644150
       3933.5800      0.43742210
       3935.0500      0.51571950
       3936.5200      0.40382670
       3937.9900      0.31404810
       3939.4600      0.34972070
       3940.9300      0.39258720
       3942.4000      0.46620050
       3943.8700      0.44235810
       3945.3400      0.39142220
       3946.8100      0.47216030
       3948.2800      0.44625880
       3949.7500      0.41641110
       3951.2200      0.46466090
       3952.6900      0.40770660
       3954.1600      0.36473160
       3955.6300      0.26813590
       3957.1000      0.36024510
       3958.5700      0.44158910
       3960.0400      0.39191470
       3961.5100      0.46783870
       3962.9800      0.40378920
       3964.4500      0.25030060
       3965.9200      0.29152410
       3967.3900      0.38542720
       3968.8600      0.39895400
       3970.3300      0.43099780
       3971.8000      0.42571680
       3973.2700      0.41008950
       3974.7400      0.47339480
       3976.2100      0.50865620
       3977.6800      0.39965740
       3979.1500      0.36455320
       3980.6200      0.43165340
       3982.0900      0.40932440
       3983.5600      0.38730370
       3985.0300      0.44539330
       3986.5000      0.48996840
       3987.9700      0.45080770
       3989.4400      0.36234230
       3990.9100      0.21724640
       3992.3800      0.28724530
       3993.8500      0.51137230
       3995.3200      0.52082930
       3996.7900      0.28397700
       3998.2600      0.28607160
       3999.7300      0.35486490
       4001.2000      0.59055850
       4002.6700      0.65365870
       4004.1400      0.44327240
       4005.6100      0.44347510
       4007.0800      0.53745450
       4008.5500      0.42055330
       4010.0200      0.37482050
       4011.4900      0.48765070
       4012.9600      0.54326460
       4014.4300      0.40054030
       4015.9000      0.43987160
       4017.3700      0.55976080
       4018.8400      0.52608590
       4020.3100      0.45273860
       4021.7800      0.42130270
       4023.2500      0.44810920
       4024.7201      0.41572060
       4026.1900      0.38607530
       4027.6600      0.45595650
       4029.1300      0.47126250
       4030.6000      0.43894650
       4032.0700      0.48769230
       4033.5400      0.48981450
       4035.0100      0.41523460
       4036.4800      0.42169610
       4037.9500      0.37804600
       4039.4200      0.31901650
       4040.8900      0.40243130
       4042.3600      0.47462790
       4043.8300      0.42380970
       4045.3000      0.37946280
       4046.7700      0.39350710
       4048.2400      0.54685910
       4049.7100      0.47809530
       4051.1800      0.31319280
       4052.6500      0.37702650
       4054.1200      0.46196000
       4055.5900      0.40171860
       4057.0600      0.37431510
       4058.5300      0.45798510
       4060.0000      0.40703240
       4061.4700      0.33984930
       4062.9400      0.36997500
       4064.4100      0.41642070
       4065.8800      0.32287760
       4067.3500      0.24780180
       4068.8200      0.33071350
       4070.2900      0.44625680
       4071.7600      0.37513000
       4073.2300      0.24498660
       4074.7000      0.30562080
       4076.1700      0.34367460
       4077.6400      0.22284640
       4079.1100      0.32654610
       4080.5800      0.43358300
       4082.0500      0.38517230
       4083.5200      0.37257550
       4084.9900      0.33774090
       4086.4600      0.26446220
       4087.9300      0.31638890
       4089.4000      0.35727130
       4090.8700      0.29489690
       4092.3400      0.33796060
       4093.8100      0.30482350
       4095.2800      0.32795170
       4096.7500      0.36666250
       4098.2200      0.34094660
       4099.6900      0.31828700
       4101.1600      0.31047790
       4102.6300      0.32579260
       4104.1000      0.26213140
       4105.5700      0.28788840
       4107.0400      0.29749660
       4108.5100      0.30062130
       4109.9800      0.28829260
       4111.4500      0.31593800
       4112.9200      0.34115770
       4114.3900      0.25848170
       4115.8600      0.27129720
       4117.3300      0.31235600
       4118.8000      0.22371820
       4120.2700      0.21156830
       4121.7400      0.24829610
       4123.2100      0.25138690
       4124.6800      0.29007190
       4126.1500      0.26725150
       4127.6200      0.32925950
       4129.0900      0.35570100
       4130.5600      0.28632210
       4132.0300      0.27178500
       4133.5000      0.27895420
       4134.9700      0.24167410
       4136.4400      0.24354340
       4137.9100      0.28775930
       4139.3800      0.28387680
       4140.8500      0.24578370
       4142.3200      0.28221580
       4143.7900      0.31275090
       4145.2600      0.25530220
       4146.7300      0.24630450
       4148.2000      0.28970160
       4149.6700      0.31877570
       4151.1400      0.27570020
       4152.6100      0.26375590
       4154.0800      0.20371530
       4155.5500      0.18394880
       4157.0200      0.18299820
       4158.4900      0.20199100
       4159.9600      0.24971890
       4161.4300      0.22706350
       4162.9000      0.20938860
       4164.3700      0.21223160
       4165.8400      0.18527760
       4167.3100      0.18547670
       4168.7800      0.24771840
       4170.2500      0.22815360
       4171.7200      0.20106080
       4173.1900      0.24712790
       4174.6600      0.23663310
       4176.1300      0.19415250
       4177.6000      0.19318350
       4179.0700      0.15877650
       4180.5400      0.18322520
       4182.0100      0.25608570
       4183.4800      0.27944340
       4184.9500      0.19892680
       4186.4200      0.18224820
       4187.8900      0.27599220
       4189.3600      0.24094030
       4190.8300      0.18411400
       4192.3000      0.20474380
       4193.7700      0.21263420
       4195.2400      0.21404610
       4196.7100      0.22222530
       4198.1800      0.23023320
       4199.6500      0.14078190
       4201.1200      0.13056820
       4202.5900      0.22092640
       4204.0600      0.20090080
       4205.5300      0.20852030
       4207.0000      0.21767030
       4208.4700      0.19655130
       4209.9400      0.17482120
       4211.4100      0.18533870
       4212.8800      0.22994920
       4214.3500      0.21470520
       4215.8200      0.19824010
       4217.2900      0.22222730
       4218.7600      0.20634860
       4220.2300      0.19644240
       4221.7000      0.22697160
       4223.1700      0.21110500
       4224.6400      0.20900190
       4226.1100      0.24555570
       4227.5800      0.24926170
       4229.0500      0.19868520
       4230.5200      0.21128460
       4231.9900      0.22746680
       4233.4600      0.22897390
       4234.9300      0.23593990
       4236.4000      0.22016870
       4237.8700      0.23851070
       4239.3400      0.21832200
       4240.8100      0.22416940
       4242.2800      0.24376690
       4243.7500      0.24760820
       4245.2200      0.28291310
       4246.6900      0.22818100
       4248.1600      0.21838470
       4249.6300      0.24300880
       4251.1000      0.17357020
       4252.5700      0.18897410
       4254.0400      0.24617850
       4255.5100      0.22246470
       4256.9800      0.20339840
       4258.4500      0.20199510
       4259.9200      0.21546110
       4261.3900      0.24244320
       4262.8600      0.22678570
       4264.3300      0.22531690
       4265.8000      0.25428520
       4267.2700      0.26463980
       4268.7400      0.23786170
       4270.2100      0.23070210
       4271.6800      0.19195560
       4273.1500      0.20842560
       4274.6200      0.21952640
       4276.0900      0.19344710
       4277.5600      0.22674350
       4279.0300      0.24730090
       4280.5000      0.25203610
       4281.9700      0.28107170
       4283.4400      0.23232880
       4284.9100      0.20139620
       4286.3800      0.25277410
       4287.8500      0.24541910
       4289.3200      0.29877690
       4290.7900      0.30751730
       4292.2600      0.24003300
       4293.7300      0.26088670
       4295.2000      0.24647800
       4296.6700      0.26039420
       4298.1400      0.24082940
       4299.6100      0.21351380
       4301.0800      0.23789300
       4302.5500      0.21645820
       4304.0200      0.23927230
       4305.4900      0.27880560
       4306.9600      0.25320780
       4308.4300      0.24136010
       4309.9000      0.28757530
       4311.3700      0.25767190
       4312.8400      0.23612440
       4314.3100      0.21605550
       4315.7800      0.22710390
       4317.2500      0.19744110
       4318.7200      0.21439530
       4320.1900      0.21820640
       4321.6600      0.24486370
       4323.1300      0.24299860
       4324.6000      0.21331370
       4326.0700      0.20591680
       4327.5400      0.25202800
       4329.0100      0.25480430
       4330.4800      0.28066010
       4331.9500      0.22964370
       4333.4200      0.22521010
       4334.8900      0.25152870
       4336.3600      0.25591710
       4337.8301      0.26064240
       4339.3000      0.23720020
       4340.7700      0.24785840
       4342.2400      0.23630400
       4343.7100      0.19058530
       4345.1800      0.23187050
       4346.6500      0.24532620
       4348.1200      0.26254210
       4349.5900      0.25758650
       4351.0600      0.23338320
       4352.5300      0.24899290
       4354.0000      0.27015160
       4355.4700      0.30206100
       4356.9400      0.23742390
       4358.4100      0.23604730
       4359.8800      0.26733020
       4361.3500      0.25208410
       4362.8200      0.25527560
       4364.2900      0.29085510
       4365.7600      0.26116700
       4367.2300      0.20089350
       4368.7000      0.24684330
       4370.1700      0.28036290
       4371.6400      0.24440420
       4373.1100      0.25870110
       4374.5800      0.29320830
       4376.0500      0.26669880
       4377.5200      0.25632090
       4378.9900      0.25969040
       4380.4600      0.27878310
       4381.9300      0.27185570
       4383.4000      0.24317150
       4384.8700      0.22551980
       4386.3400      0.24417510
       4387.8100      0.27262510
       4389.2800      0.26042570
       4390.7500      0.27514270
       4392.2200      0.26808420
       4393.6900      0.24632940
       4395.1600      0.26426080
       4396.6300      0.26389730
       4398.1000      0.24628430
       4399.5700      0.23013790
       4401.0400      0.23555920
       4402.5100      0.24166990
       4403.9800      0.20082140
       4405.4500      0.20219040
       4406.9200      0.28294100
       4408.3900      0.27009210
       4409.8600      0.20650900
       4411.3300      0.22090830
       4412.8000      0.22987980
       4414.2700      0.23553650
       4415.7400      0.27699590
       4417.2100      0.27930400
       4418.6800      0.22734560
       4420.1500      0.23174710
       4421.6200      0.23523880
       4423.0900      0.23803570
       4424.5600      0.21192200
       4426.0300      0.18555110
       4427.5000      0.22595550
       4428.9700      0.21554090
       4430.4400      0.23203500
       4431.9100      0.24083740
       4433.3800      0.27073160
       4434.8500      0.27686040
       4436.3200      0.21672730
       4437.7900      0.23134650
       4439.2600      0.26190080
       4440.7300      0.24691150
       4442.2000      0.22764220
       4443.6700      0.26192800
       4445.1400      0.26450070
       4446.6100      0.23311700
       4448.0800      0.24389910
       4449.5500      0.26337070
       4451.0200      0.26560360
       4452.4900      0.27400510
       4453.9600      0.25588460
       4455.4300      0.20025150
       4456.9000      0.22057130
       4458.3700      0.26128490
       4459.8400      0.25928700
       4461.3100      0.25141830
       4462.7800      0.22177370
       4464.2500      0.26008410
       4465.7200      0.30572160
       4467.1900      0.26607610
       4468.6600      0.23839470
       4470.1300      0.23972440
       4471.6000      0.23444950
       4473.0700      0.20835160
       4474.5400      0.26844930
       4476.0100      0.27622510
       4477.4800      0.25065640
       4478.9500      0.28425170
       4480.4200      0.30476590
       4481.8900      0.27834510
       4483.3600      0.29570240
       4484.8300      0.36852680
       4486.3000      0.33138060
       4487.7700      0.27322600
       4489.2400      0.30494760
       4490.7100      0.32250740
       4492.1800      0.31635920
       4493.6500      0.33903800
       4495.1200      0.31483710
       4496.5900      0.32857530
       4498.0600      0.33928250
       4499.5300      0.31165600
       4501.0000      0.33506980
       4502.4700      0.34033820
       4503.9400      0.35869630
       4505.4100      0.38235380
       4506.8800      0.37995120
       4508.3500      0.35984060
       4509.8200      0.34618200
       4511.2900      0.38805510
       4512.7600      0.34932990
       4514.2300      0.38974920
       4515.7000      0.37664700
       4517.1700      0.41392190
       4518.6400      0.41051960
       4520.1100      0.37241960
       4521.5800      0.40363460
       4523.0500      0.40503720
       4524.5200      0.38032240
       4525.9900      0.38502110
       4527.4600      0.39812050
       4528.9300      0.40232990
       4530.4000      0.41540800
       4531.8700      0.43087280
       4533.3400      0.48519680
       4534.8100      0.45551390
       4536.2800      0.42315070
       4537.7500      0.43667630
       4539.2200      0.46897080
       4540.6900      0.44606700
       4542.1600      0.46353570
       4543.6300      0.49069190
       4545.1000      0.43537700
       4546.5700      0.47590490
       4548.0400      0.52598480
       4549.5100      0.50624380
       4550.9800      0.44410590
       4552.4500      0.49787950
       4553.9200      0.51646540
       4555.3900      0.51536700
       4556.8600      0.53277300
       4558.3300      0.49593880
       4559.8000      0.50701080
       4561.2700      0.53357750
       4562.7400      0.51090940
       4564.2100      0.53374430
       4565.6800      0.55941710
       4567.1500      0.59291820
       4568.6200      0.54171550
       4570.0900      0.50655800
       4571.5600      0.49831180
       4573.0300      0.51099320
       4574.5000      0.54894010
       4575.9700      0.55472650
       4577.4400      0.53648300
       4578.9100      0.56132950
       4580.3800      0.54585200
       4581.8500      0.56883320
       4583.3200      0.60201510
       4584.7900      0.59838560
       4586.2600      0.62237870
       4587.7300      0.57529250
       4589.2000      0.59773760
       4590.6700      0.66039140
       4592.1400      0.59489820
       4593.6100      0.61929820
       4595.0800      0.68012180
       4596.5500      0.70161280
       4598.0200      0.63897790
       4599.4900      0.62907620
       4600.9600      0.61939840
       4602.4300      0.62796840
       4603.9000      0.57188760
       4605.3700      0.62247870
       4606.8400      0.62310650
       4608.3100      0.60100440
       4609.7800      0.63438800
       4611.2500      0.60488060
       4612.7200      0.64109430
       4614.1900      0.63973240
       4615.6600      0.62892200
       4617.1300      0.62873130
       4618.6000      0.62581680
       4620.0700      0.64062330
       4621.5400      0.59584940
       4623.0100      0.62320360
       4624.4800      0.66900630
       4625.9500      0.65367120
       4627.4200      0.64467080
       4628.8900      0.65319690
       4630.3600      0.68074080
       4631.8300      0.68388860
       4633.3000      0.69857790
       4634.7700      0.67602850
       4636.2400      0.61239970
       4637.7100      0.62556470
       4639.1800      0.69026290
       4640.6500      0.70386680
       4642.1200      0.68907340
       4643.5900      0.68154310
       4645.0600      0.66698380
       4646.5300      0.64075580
       4648.0000      0.64092490
       4649.4700      0.61192200
       4650.9401      0.66316710
       4652.4100      0.64226310
       4653.8800      0.63527800
       4655.3500      0.67709240
       4656.8200      0.63955340
       4658.2900      0.61282560
       4659.7600      0.55234120
       4661.2300      0.62309580
       4662.7000      0.67245910
       4664.1700      0.66267010
       4665.6400      0.60076590
       4667.1100      0.53657360
       4668.5800      0.67067560
       4670.0500      0.64483920
       4671.5200      0.58393590
       4672.9900      0.58167030
       4674.4600      0.56681120
       4675.9300      0.53393530
       4677.4000      0.54876340
       4678.8700      0.53227620
       4680.3400      0.57759370
       4681.8100      0.60190660
       4683.2800      0.56355690
       4684.7500      0.51547430
       4686.2200      0.51695030
       4687.6900      0.56432990
       4689.1600      0.55334500
       4690.6300      0.56603310
       4692.1000      0.51319800
       4693.5700      0.53138770
       4695.0400      0.55767950
       4696.5100      0.53468660
       4697.9800      0.52370990
       4699.4500      0.52536340
       4700.9200      0.50101880
       4702.3900      0.50078990
       4703.8600      0.49729400
       4705.3300      0.49352190
       4706.8000      0.47976450
       4708.2700      0.49464170
       4709.7400      0.49672570
       4711.2100      0.51798410
       4712.6800      0.49786530
       4714.1500      0.43981230
       4715.6200      0.45100290
       4717.0900      0.45358000
       4718.5600      0.50459100
       4720.0300      0.48777830
       4721.5000      0.46271360
       4722.9700      0.44379760
       4724.4400      0.43874520
       4725.9100      0.45521240
       4727.3800      0.42821120
       4728.8500      0.44898030
       4730.3200      0.43911150
       4731.7900      0.42596450
       4733.2600      0.41968570
       4734.7300      0.43277440
       4736.2000      0.41794820
       4737.6700      0.42341350
       4739.1400      0.41396840
       4740.6100      0.39331290
       4742.0800      0.43247570
       4743.5500      0.46208810
       4745.0200      0.44728070
       4746.4900      0.44954420
       4747.9600      0.46234690
       4749.4300      0.41683240
       4750.9000      0.42437510
       4752.3700      0.44122900
       4753.8400      0.42584540
       4755.3100      0.45091620
       4756.7800      0.40062280
       4758.2500      0.38125360
       4759.7200      0.41321960
       4761.1900      0.43699420
       4762.6600      0.43751020
       4764.1300      0.38845500
       4765.6000      0.41811980
       4767.0700      0.36303680
       4768.5400      0.39056270
       4770.0100      0.37941280
       4771.4800      0.38404560
       4772.9500      0.39193920
       4774.4200      0.38669560
       4775.8900      0.37723130
       4777.3600      0.39095130
       4778.8300      0.39919780
       4780.3000      0.41251900
       4781.7700      0.41051350
       4783.2400      0.41184070
       4784.7100      0.40963170
       4786.1800      0.35403520
       4787.6500      0.34819510
       4789.1200      0.37918830
       4790.5900      0.37640880
       4792.0600      0.36490650
       4793.5300      0.37904550
       4795.0000      0.33800410
       4796.4700      0.33350910
       4797.9400      0.32736580
       4799.4100      0.35800360
       4800.8800      0.36394060
       4802.3500      0.34622440
       4803.8200      0.37267450
       4805.2900      0.33062570
       4806.7600      0.33246340
       4808.2300      0.31534580
       4809.7000      0.31725140
       4811.1700      0.30540220
       4812.6400      0.33443420
       4814.1100      0.31308640
       4815.5800      0.27440570
       4817.0500      0.31588250
       4818.5200      0.37289050
       4819.9900      0.36772850
       4821.4600      0.33779460
       4822.9300      0.36193300
       4824.4000      0.36172030
       4825.8700      0.34291220
       4827.3400      0.32668470
       4828.8100      0.36167140
       4830.2800      0.36654820
       4831.7500      0.33525010
       4833.2200      0.36165520
       4834.6900      0.38879870
       4836.1600      0.38142210
       4837.6300      0.36194990
       4839.1000      0.37339400
       4840.5700      0.37558710
       4842.0400      0.37015550
       4843.5100      0.35479080
       4844.9800      0.32017890
       4846.4500      0.34435380
       4847.9200      0.37507300
       4849.3900      0.34581360
       4850.8600      0.32670820
       4852.3300      0.35640870
       4853.8000      0.38725090
       4855.2700      0.41493580
       4856.7400      0.42886840
       4858.2100      0.41655400
       4859.6800      0.42283020
       4861.1500      0.37526440
       4862.6200      0.38816270
       4864.0900      0.39249690
       4865.5600      0.39696010
       4867.0300      0.41131150
       4868.5000      0.39370730
       4869.9700      0.39114320
       4871.4400      0.37924260
       4872.9100      0.38166400
       4874.3800      0.37231900
       4875.8500      0.36963280
       4877.3200      0.36447330
       4878.7900      0.35264220
       4880.2600      0.39309680
       4881.7300      0.41700910
       4883.2000      0.37027850
       4884.6700      0.37121190
       4886.1400      0.35355140
       4887.6100      0.36855340
       4889.0800      0.38004620
       4890.5500      0.33966620
       4892.0200      0.34238670
       4893.4900      0.36500100
       4894.9600      0.39550160
       4896.4300      0.37458000
       4897.9000      0.37337220
       4899.3700      0.37373420
       4900.8400      0.40759520
       4902.3100      0.36621110
       4903.7800      0.35450660
       4905.2500      0.39786730
       4906.7200      0.38432580
       4908.1900      0.38049390
       4909.6600      0.38929600
       4911.1300      0.39883610
       4912.6000      0.35754390
       4914.0700      0.36193390
       4915.5400      0.35837360
       4917.0100      0.42104010
       4918.4800      0.38437700
       4919.9500      0.37606600
       4921.4200      0.41243520
       4922.8900      0.39486720
       4924.3600      0.38550830
       4925.8300      0.39999520
       4927.3000      0.37004490
       4928.7700      0.40487480
       4930.2400      0.42425480
       4931.7100      0.47246100
       4933.1800      0.39689630
       4934.6500      0.43509240
       4936.1200      0.44366650
       4937.5900      0.46985040
       4939.0600      0.43220660
       4940.5300      0.39744370
       4942.0000      0.42527580
       4943.4700      0.46959670
       4944.9400      0.45118940
       4946.4100      0.44008550
       4947.8800      0.45599820
       4949.3500      0.44617750
       4950.8200      0.46846910
       4952.2900      0.47101410
       4953.7600      0.49188760
       4955.2300      0.48977200
       4956.7000      0.47856490
       4958.1700      0.49440490
       4959.6400      0.47596650
       4961.1100      0.50315600
       4962.5800      0.55654910
       4964.0501      0.54822590
       4965.5200      0.53925020
       4966.9900      0.56678630
       4968.4600      0.56832610
       4969.9300      0.52543150
       4971.4000      0.53656590
       4972.8700      0.58314930
       4974.3400      0.54016420
       4975.8100      0.55492570
       4977.2800      0.58042150
       4978.7500      0.53831910
       4980.2200      0.58772670
       4981.6900      0.63558740
       4983.1600      0.61554720
       4984.6300      0.56569010
       4986.1000      0.56387390
       4987.5700      0.53846200
       4989.0400      0.51914290
       4990.5100      0.55623450
       4991.9800      0.57024790
       4993.4500      0.55650110
       4994.9200      0.52444400
       4996.3900      0.53955290
       4997.8600      0.51301910
       4999.3300      0.49256130
       5000.8000      0.51838330
       5002.2700      0.51210720
       5003.7400      0.46130420
       5005.2100      0.44711150
       5006.6800      0.47763280
       5008.1500      0.49824960
       5009.6200      0.44386450
       5011.0900      0.46095160
       5012.5600      0.45235000
       5014.0300      0.43762800
       5015.5000      0.43994780
       5016.9700      0.42745060
       5018.4400      0.44853450
       5019.9100      0.41976000
       5021.3800      0.40498040
       5022.8500      0.44920920
       5024.3200      0.39658710
       5025.7900      0.42046070
       5027.2600      0.41268630
       5028.7300      0.42688950
       5030.2000      0.44872860
       5031.6700      0.44012430
       5033.1400      0.38224470
       5034.6100      0.34707780
       5036.0800      0.34155760
       5037.5500      0.35537290
       5039.0200      0.35089440
       5040.4900      0.31835290
       5041.9600      0.31128720
       5043.4300      0.35406490
       5044.9000      0.37106430
       5046.3700      0.33238510
       5047.8400      0.33786390
       5049.3100      0.32768200
       5050.7800      0.29274560
       5052.2500      0.32945160
       5053.7200      0.31808050
       5055.1900      0.31744270
       5056.6600      0.32520790
       5058.1300      0.30277350
       5059.6000      0.28527240
       5061.0700      0.31017270
       5062.5400      0.33151540
       5064.0100      0.32201770
       5065.4800      0.34048210
       5066.9500      0.30443860
       5068.4200      0.30121250
       5069.8900      0.30753290
       5071.3600      0.31960190
       5072.8300      0.33235970
       5074.3000      0.33272510
       5075.7700      0.34605340
       5077.2400      0.28938060
       5078.7100      0.29702960
       5080.1800      0.32837280
       5081.6500      0.30765610
       5083.1200      0.29886910
       5084.5900      0.27649360
       5086.0600      0.33107810
       5087.5300      0.31162730
       5089.0000      0.34490500
       5090.4700      0.33211430
       5091.9400      0.31761690
       5093.4100      0.31262360
       5094.8800      0.32766190
       5096.3500      0.31221240
       5097.8200      0.32997610
       5099.2900      0.35054960
       5100.7600      0.34977860
       5102.2300      0.35396240
       5103.7000      0.38709260
       5105.1700      0.34078760
       5106.6400      0.37216710
       5108.1100      0.34903330
       5109.5800      0.34606270
       5111.0500      0.36193520
       5112.5200      0.38077120
       5113.9900      0.36113650
       5115.4600      0.37112710
       5116.9300      0.35234250
       5118.4000      0.36147280
       5119.8700      0.36185850
       5121.3400      0.39021300
       5122.8100      0.41423580
       5124.2800      0.41422500
       5125.7500      0.39700660
       5127.2200      0.39503520
       5128.6900      0.40692640
       5130.1600      0.38892750
       5131.6300      0.41908490
       5133.1000      0.39220680
       5134.5700      0.41561660
       5136.0400      0.42490570
       5137.5100      0.42485570
       5138.9800      0.43938410
       5140.4500      0.44151450
       5141.9200      0.43109040
       5143.3900      0.44869860
       5144.8600      0.40758830
       5146.3300      0.40276750
       5147.8000      0.42756160
       5149.2700      0.44883410
       5150.7400      0.45281610
       5152.2100      0.44544590
       5153.6800      0.41088340
       5155.1500      0.39828490
       5156.6200      0.44659270
       5158.0900      0.46792950
       5159.5600      0.43385990
       5161.0300      0.42547710
       5162.5000      0.44048150
       5163.9700      0.45564640
       5165.4400      0.44487270
       5166.9100      0.43240310
       5168.3800      0.46607270
       5169.8500      0.48202170
       5171.3200      0.45597820
       5172.7900      0.44380900
       5174.2600      0.48577440
       5175.7300      0.46819630
       5177.2000      0.46431370
       5178.6700      0.46698590
       5180.1400      0.45729750
       5181.6100      0.46575460
       5183.0800      0.48002900
       5184.5500      0.46519990
       5186.0200      0.47330910
       5187.4900      0.47221070
       5188.9600      0.47827460
       5190.4300      0.47637940
       5191.9000      0.45116460
       5193.3700      0.43223330
       5194.8400      0.43849630
       5196.3100      0.44544010
       5197.7800      0.43782270
       5199.2500      0.47740310
       5200.7200      0.43757130
       5202.1900      0.46152320
       5203.6600      0.48996040
       5205.1300      0.47784460
       5206.6000      0.46782570
       5208.0700      0.45868180
       5209.5400      0.48611320
       5211.0100      0.48858060
       5212.4800      0.45483560
       5213.9500      0.45631320
       5215.4200      0.49501500
       5216.8900      0.50654570
       5218.3600      0.51281660
       5219.8300      0.50500540
       5221.3000      0.50693910
       5222.7700      0.51455650
       5224.2400      0.52173330
       5225.7100      0.51069770
       5227.1800      0.51362260
       5228.6500      0.49737060
       5230.1200      0.48840870
       5231.5900      0.53328860
       5233.0600      0.52850400
       5234.5300      0.51362030
       5236.0000      0.53537220
       5237.4700      0.52461220
       5238.9400      0.51316290
       5240.4100      0.53914660
       5241.8800      0.53475470
       5243.3500      0.53093220
       5244.8200      0.53887620
       5246.2900      0.53848660
       5247.7600      0.54381400
       5249.2300      0.53834270
       5250.7000      0.57689990
       5252.1700      0.56343010
       5253.6400      0.55471320
       5255.1100      0.57210520
       5256.5800      0.56291760
       5258.0500      0.56352070
       5259.5200      0.60426360
       5260.9900      0.59919860
       5262.4600      0.60135530
       5263.9300      0.58157750
       5265.4000      0.58544830
       5266.8700      0.60728630
       5268.3400      0.58017500
       5269.8100      0.55683200
       5271.2800      0.55929550
       5272.7500      0.60180500
       5274.2200      0.61551000
       5275.6900      0.57769140
       5277.1601      0.58614240
       5278.6300      0.60427330
       5280.1000      0.59832570
       5281.5700      0.60619060
       5283.0400      0.62792420
       5284.5100      0.61708910
       5285.9800      0.59682980
       5287.4500      0.58227220
       5288.9200      0.58374770
       5290.3900      0.61487100
       5291.8600      0.62017710
       5293.3300      0.60840740
       5294.8000      0.63645210
       5296.2700      0.64522670
       5297.7400      0.64080110
       5299.2100      0.61513550
       5300.6800      0.62458550
       5302.1500      0.64125050
       5303.6200      0.64402530
       5305.0900      0.64750800
       5306.5600      0.65576980
       5308.0300      0.65109340
       5309.5000      0.64748260
       5310.9700      0.65609140
       5312.4400      0.66302190
       5313.9100      0.64798720
       5315.3800      0.63035230
       5316.8500      0.65375210
       5318.3200      0.64789550
       5319.7900      0.63644770
       5321.2600      0.66019050
       5322.7300      0.63808960
       5324.2000      0.62606570
       5325.6700      0.64876780
       5327.1400      0.64178210
       5328.6100      0.63470390
       5330.0800      0.68667470
       5331.5500      0.70320210
       5333.0200      0.70280730
       5334.4900      0.69665990
       5335.9600      0.66922340
       5337.4300      0.67176620
       5338.9000      0.68165990
       5340.3700      0.68217870
       5341.8400      0.69463780
       5343.3100      0.71086430
       5344.7800      0.70340290
       5346.2500      0.67570530
       5347.7200      0.65881560
       5349.1900      0.68353600
       5350.6600      0.72954630
       5352.1300      0.72845960
       5353.6000      0.69732420
       5355.0700      0.68954350
       5356.5400      0.70032620
       5358.0100      0.70262750
       5359.4800      0.70128960
       5360.9500      0.72201320
       5362.4200      0.71688990
       5363.8900      0.69692400
       5365.3600      0.70937090
       5366.8300      0.70458890
       5368.3000      0.68648920
       5369.7700      0.68463410
       5371.2400      0.69978210
       5372.7100      0.70647030
       5374.1800      0.69431310
       5375.6500      0.69627650
       5377.1200      0.69975200
       5378.5900      0.72616890
       5380.0600      0.73334340
       5381.5300      0.71718630
       5383.0000      0.71669350
       5384.4700      0.70947700
       5385.9400      0.71295010
       5387.4100      0.70571940
       5388.8800      0.68336830
       5390.3500      0.65279730
       5391.8200      0.64134110
       5393.2900      0.65530460
       5394.7600      0.70186360
       5396.2300      0.71408520
       5397.7000      0.69965010
       5399.1700      0.65448990
       5400.6400      0.65839620
       5402.1100      0.71954670
       5403.5800      0.69186900
       5405.0500      0.67350140
       5406.5200      0.71620230
       5407.9900      0.70901580
       5409.4600      0.67953940
       5410.9300      0.68467390
       5412.4000      0.64580670
       5413.8700      0.63241770
       5415.3400      0.67257900
       5416.8100      0.68651590
       5418.2800      0.64265620
       5419.7500      0.61081980
       5421.2200      0.64147930
       5422.6900      0.64307420
       5424.1600      0.65140950
       5425.6300      0.62779670
       5427.1000      0.58109010
       5428.5700      0.58919760
       5430.0400      0.60539490
       5431.5100      0.60737140
       5432.9800      0.62034280
       5434.4500      0.60844180
       5435.9200      0.57336460
       5437.3900      0.57767190
       5438.8600      0.59369930
       5440.3300      0.59346590
       5441.8000      0.57385290
       5443.2700      0.56182320
       5444.7400      0.58407910
       5446.2100      0.58150510
       5447.6800      0.59021770
       5449.1500      0.59251800
       5450.6200      0.57922640
       5452.0900      0.55045780
       5453.5600      0.54142250
       5455.0300      0.55158690
       5456.5000      0.58947800
       5457.9700      0.61996780
       5459.4400      0.59082750
       5460.9100      0.56624820
       5462.3800      0.57403740
       5463.8500      0.57389530
       5465.3200      0.59749670
       5466.7900      0.60631400
       5468.2600      0.61314210
       5469.7300      0.59946730
       5471.2000      0.59305770
       5472.6700      0.61157260
       5474.1400      0.62289840
       5475.6100      0.63227350
       5477.0800      0.63833720
       5478.5500      0.66457060
       5480.0200      0.67987870
       5481.4900      0.71918400
       5482.9600      0.74652710
       5484.4300      0.71431720
       5485.9000      0.72543720
       5487.3700      0.73970540
       5488.8400      0.74725220
       5490.3100      0.73262170
       5491.7800      0.72293870
       5493.2500      0.76956560
       5494.7200      0.80241190
       5496.1900      0.79773710
       5497.6600      0.80958960
       5499.1300      0.82115580
       5500.6000      0.85408150
       5502.0700      0.87689580
       5503.5400      0.87635420
       5505.0100      0.88706120
       5506.4800      0.88745220
       5507.9500      0.89461000
       5509.4200      0.92736840
       5510.8900      0.91357850
       5512.3600      0.90813040
       5513.8300      0.95616870
       5515.3000      0.95371010
       5516.7700      0.95498150
       5518.2400      0.96803950
       5519.7100      0.98270630
       5521.1800       1.0631740
       5522.6500       1.0344410
       5524.1200      0.97487400
       5525.5900       1.0256000
       5527.0600       1.0479430
       5528.5300       1.0106880
       5530.0000      0.96735020
       5531.4700      0.99332790
       5532.9400       1.0247970
       5534.4100      0.98844720
       5535.8800      0.99579000
       5537.3500       1.0048920
       5538.8200       1.0124960
       5540.2900       1.0152020
       5541.7600      0.97408370
       5543.2300      0.96547780
       5544.7000      0.96556970
       5546.1700      0.96293730
       5547.6400      0.95446950
       5549.1100      0.93722580
       5550.5800      0.89751580
       5552.0500      0.89534710
       5553.5200      0.93169840
       5554.9900      0.90343030
       5556.4600      0.86482860
       5557.9300      0.87777000
       5559.4000      0.86384250
       5560.8700      0.82027780
       5562.3400      0.84649340
       5563.8100      0.84414990
       5565.2800      0.81739150
       5566.7500      0.78016160
       5568.2200      0.77322110
       5569.6900      0.80840570
       5571.1600      0.78033810
       5572.6300      0.75689700
       5574.1000      0.74439510
       5575.5700      0.68965350
       5577.0400      0.70671020
       5578.5100      0.77668050
       5579.9800      0.75339040
       5581.4500      0.70545520
       5582.9200      0.66610200
       5584.3900      0.63424010
       5585.8600      0.63450880
       5587.3300      0.64345560
       5588.8000      0.64135420
       5590.2701      0.63155930
       5591.7400      0.61954050
       5593.2100      0.60003950
       5594.6800      0.61356310
       5596.1500      0.63052860
       5597.6200      0.61593650
       5599.0900      0.60408970
       5600.5600      0.59032880
       5602.0300      0.61036160
       5603.5000      0.62527260
       5604.9700      0.60415600
       5606.4400      0.61661390
       5607.9100      0.60614880
       5609.3800      0.61032000
       5610.8500      0.63714250
       5612.3200      0.64872260
       5613.7900      0.63981570
       5615.2600      0.62457010
       5616.7300      0.66199240
       5618.2000      0.68742600
       5619.6700      0.66156150
       5621.1400      0.66053660
       5622.6100      0.69757220
       5624.0800      0.67392470
       5625.5500      0.67677010
       5627.0200      0.71210330
       5628.4900      0.71167310
       5629.9600      0.69481550
       5631.4300      0.67884730
       5632.9000      0.70353950
       5634.3700      0.73021170
       5635.8400      0.73716170
       5637.3100      0.73311020
       5638.7800      0.73624650
       5640.2500      0.74685420
       5641.7200      0.73012550
       5643.1900      0.72692380
       5644.6600      0.73105370
       5646.1300      0.71516620
       5647.6000      0.73116580
       5649.0700      0.74538390
       5650.5400      0.73036740
       5652.0100      0.73129730
       5653.4800      0.75580300
       5654.9500      0.75613470
       5656.4200      0.74266750
       5657.8900      0.72814120
       5659.3600      0.69752400
       5660.8300      0.68892790
       5662.3000      0.69548290
       5663.7700      0.68470170
       5665.2400      0.63618280
       5666.7100      0.59894840
       5668.1800      0.61035980
       5669.6500      0.60958510
       5671.1200      0.57434060
       5672.5900      0.55140080
       5674.0600      0.54602640
       5675.5300      0.54732240
       5677.0000      0.52714170
       5678.4700      0.48493290
       5679.9400      0.49241910
       5681.4100      0.50435390
       5682.8800      0.49051830
       5684.3500      0.48720070
       5685.8200      0.46894450
       5687.2900      0.44516100
       5688.7600      0.43505540
       5690.2300      0.44133010
       5691.7000      0.45022000
       5693.1700      0.46240020
       5694.6400      0.45781550
       5696.1100      0.42231590
       5697.5800      0.42164570
       5699.0500      0.42702210
       5700.5200      0.40415530
       5701.9900      0.40122320
       5703.4600      0.38287120
       5704.9300      0.35530900
       5706.4000      0.37618990
       5707.8700      0.40567900
       5709.3400      0.40058270
       5710.8100      0.37407870
       5712.2800      0.36327020
       5713.7500      0.36966930
       5715.2200      0.38398520
       5716.6900      0.37688280
       5718.1600      0.36994250
       5719.6300      0.37358580
       5721.1000      0.36213490
       5722.5700      0.35245780
       5724.0400      0.34869850
       5725.5100      0.36282740
       5726.9800      0.39616400
       5728.4500      0.38715610
       5729.9200      0.36608940
       5731.3900      0.37531470
       5732.8600      0.37179960
       5734.3300      0.36401160
       5735.8000      0.38131340
       5737.2700      0.40889130
       5738.7400      0.38720090
       5740.2100      0.36890240
       5741.6800      0.36362420
       5743.1500      0.35473030
       5744.6200      0.36512720
       5746.0900      0.36003370
       5747.5600      0.35337450
       5749.0300      0.33247800
       5750.5000      0.33974030
       5751.9700      0.36425150
       5753.4400      0.35478690
       5754.9100      0.33192980
       5756.3800      0.33691920
       5757.8500      0.34918480
       5759.3200      0.33732940
       5760.7900      0.33300850
       5762.2600      0.35445350
       5763.7300      0.35420280
       5765.2000      0.32202130
       5766.6700      0.34778600
       5768.1400      0.36818440
       5769.6100      0.33514230
       5771.0800      0.34014180
       5772.5500      0.32749790
       5774.0200      0.30680830
       5775.4900      0.34030810
       5776.9600      0.34241350
       5778.4300      0.32011690
       5779.9000      0.34601910
       5781.3700      0.32141350
       5782.8400      0.29189840
       5784.3100      0.31327750
       5785.7800      0.32284480
       5787.2500      0.30274990
       5788.7200      0.31110570
       5790.1900      0.33036350
       5791.6600      0.36252770
       5793.1300      0.32726940
       5794.6000      0.33194010
       5796.0700      0.35787730
       5797.5400      0.34152410
       5799.0100      0.33941700
       5800.4800      0.36373510
       5801.9500      0.37560440
       5803.4200      0.36839520
       5804.8900      0.36546680
       5806.3600      0.35211640
       5807.8300      0.33981700
       5809.3000      0.35726320
       5810.7700      0.36907190
       5812.2400      0.37139340
       5813.7100      0.35931710
       5815.1800      0.36386390
       5816.6500      0.34444300
       5818.1200      0.37805050
       5819.5900      0.42051700
       5821.0600      0.40138300
       5822.5300      0.39716770
       5824.0000      0.43321310
       5825.4700      0.43028270
       5826.9400      0.42426040
       5828.4100      0.44090490
       5829.8800      0.47636180
       5831.3500      0.47948900
       5832.8200      0.47758990
       5834.2900      0.49438620
       5835.7600      0.48455570
       5837.2300      0.50632510
       5838.7000      0.53642090
       5840.1700      0.51863550
       5841.6400      0.52099390
       5843.1100      0.55131660
       5844.5800      0.55656530
       5846.0500      0.56854440
       5847.5200      0.58185000
       5848.9900      0.58575050
       5850.4600      0.60272570
       5851.9300      0.63271530
       5853.4000      0.59984670
       5854.8700      0.58850160
       5856.3400      0.63441760
       5857.8100      0.68297390
       5859.2800      0.64373500
       5860.7500      0.63377140
       5862.2200      0.64874850
       5863.6900      0.66377650
       5865.1600      0.70817830
       5866.6300      0.65227040
       5868.1000      0.63915720
       5869.5700      0.69403920
       5871.0400      0.70787840
       5872.5100      0.71109680
       5873.9800      0.70573910
       5875.4500      0.72305360
       5876.9200      0.75826490
       5878.3900      0.76549140
       5879.8600      0.77187810
       5881.3300      0.79576310
       5882.8000      0.76865630
       5884.2700      0.75201760
       5885.7400      0.76038440
       5887.2100      0.72427280
       5888.6800      0.71450000
       5890.1500      0.72498490
       5891.6200      0.73752900
       5893.0900      0.75989600
       5894.5600      0.76869210
       5896.0300      0.78546840
       5897.5000      0.80878100
       5898.9700      0.79163240
       5900.4400      0.75103170
       5901.9100      0.75992410
       5903.3801      0.78956570
       5904.8500      0.79855560
       5906.3200      0.80684640
       5907.7900      0.78188740
       5909.2600      0.79414710
       5910.7300      0.83227960
       5912.2000      0.83196930
       5913.6700      0.81220890
       5915.1400      0.78062120
       5916.6100      0.76323190
       5918.0800      0.79108010
       5919.5500      0.83093100
       5921.0200      0.79273770
       5922.4900      0.77379370
       5923.9600      0.82163910
       5925.4300      0.83368310
       5926.9000      0.79878130
       5928.3700      0.77193790
       5929.8400      0.80054720
       5931.3100      0.84241930
       5932.7800      0.85802470
       5934.2500      0.83690790
       5935.7200      0.80669920
       5937.1900      0.80106470
       5938.6600      0.80489800
       5940.1300      0.80341840
       5941.6000      0.80788610
       5943.0700      0.79963600
       5944.5400      0.78271950
       5946.0100      0.78659170
       5947.4800      0.77302940
       5948.9500      0.74365560
       5950.4200      0.73019940
       5951.8900      0.75558700
       5953.3600      0.80910640
       5954.8300      0.81848480
       5956.3000      0.76187420
       5957.7700      0.77643010
       5959.2400      0.82208970
       5960.7100      0.82369590
       5962.1800      0.76926770
       5963.6500      0.75990870
       5965.1200      0.77616610
       5966.5900      0.79274770
       5968.0600      0.76644670
       5969.5300      0.73577960
       5971.0000      0.73549660
       5972.4700      0.75095980
       5973.9400      0.76626450
       5975.4100      0.76844010
       5976.8800      0.77712320
       5978.3500      0.74869020
       5979.8200      0.73183570
       5981.2900      0.76607570
       5982.7600      0.73965600
       5984.2300      0.72907300
       5985.7000      0.73512940
       5987.1700      0.69660340
       5988.6400      0.69405190
       5990.1100      0.72093470
       5991.5800      0.72657830
       5993.0500      0.74241630
       5994.5200      0.75685760
       5995.9900      0.70599870
       5997.4600      0.72927160
       5998.9300      0.73687820
       6000.4000      0.71642760
       6001.8700      0.71777940
       6003.3400      0.73233780
       6004.8100      0.72164060
       6006.2800      0.68530540
       6007.7500      0.67388810
       6009.2200      0.69028650
       6010.6900      0.68423010
       6012.1600      0.68097200
       6013.6300      0.72058370
       6015.1000      0.67962930
       6016.5700      0.68766150
       6018.0400      0.68582760
       6019.5100      0.67251320
       6020.9800      0.67341150
       6022.4500      0.66937960
       6023.9200      0.68998670
       6025.3900      0.65967610
       6026.8600      0.67795820
       6028.3300      0.64982310
       6029.8000      0.66441750
       6031.2700      0.68011560
       6032.7400      0.66485670
       6034.2100      0.64415370
       6035.6800      0.66110900
       6037.1500      0.65372190
       6038.6200      0.62544200
       6040.0900      0.64364980
       6041.5600      0.62996360
       6043.0300      0.60421570
       6044.5000      0.59866680
       6045.9700      0.61793380
       6047.4400      0.64352540
       6048.9100      0.61555620
       6050.3800      0.61246220
       6051.8500      0.59835410
       6053.3200      0.60181920
       6054.7900      0.59710540
       6056.2600      0.58902790
       6057.7300      0.60304250
       6059.2000      0.62528710
       6060.6700      0.59498560
       6062.1400      0.59070520
       6063.6100      0.56113950
       6065.0800      0.53003220
       6066.5500      0.53545110
       6068.0200      0.55252190
       6069.4900      0.56107570
       6070.9600      0.53940340
       6072.4300      0.52748530
       6073.9000      0.58383100
       6075.3700      0.57548420
       6076.8400      0.56510500
       6078.3100      0.52771870
       6079.7800      0.50427570
       6081.2500      0.53919110
       6082.7200      0.54833950
       6084.1900      0.53125450
       6085.6600      0.52616910
       6087.1300      0.50433910
       6088.6000      0.51548860
       6090.0700      0.49432600
       6091.5400      0.46986520
       6093.0100      0.49541450
       6094.4800      0.50863650
       6095.9500      0.53878360
       6097.4200      0.54197630
       6098.8900      0.53248430
       6100.3600      0.51298030
       6101.8300      0.54554220
       6103.3000      0.55875470
       6104.7700      0.53196570
       6106.2400      0.53076090
       6107.7100      0.56493290
       6109.1800      0.56589860
       6110.6500      0.57482410
       6112.1200      0.52678760
       6113.5900      0.53793720
       6115.0600      0.58738830
       6116.5300      0.60166010
       6118.0000      0.54232360
       6119.4700      0.53702430
       6120.9400      0.55184410
       6122.4100      0.56258390
       6123.8800      0.57748730
       6125.3500      0.60134600
       6126.8200      0.60203830
       6128.2900      0.57700650
       6129.7600      0.57797010
       6131.2300      0.60743060
       6132.7000      0.59280060
       6134.1700      0.58277550
       6135.6400      0.62664060
       6137.1100      0.58685230
       6138.5800      0.56492020
       6140.0500      0.56839370
       6141.5200      0.54784100
       6142.9900      0.60388990
       6144.4600      0.58744510
       6145.9300      0.54762490
       6147.4000      0.58984260
       6148.8700      0.58869980
       6150.3400      0.58133360
       6151.8100      0.59001590
       6153.2800      0.59557290
       6154.7500      0.58870000
       6156.2200      0.57571750
       6157.6900      0.57186250
       6159.1600      0.56637520
       6160.6300      0.58260020
       6162.1000      0.60766170
       6163.5700      0.59898100
       6165.0400      0.57693240
       6166.5100      0.58093860
       6167.9800      0.58456030
       6169.4500      0.59294020
       6170.9200      0.56378020
       6172.3900      0.55473000
       6173.8600      0.57423270
       6175.3300      0.58679680
       6176.8000      0.58853730
       6178.2700      0.59739590
       6179.7400      0.59461250
       6181.2100      0.57744760
       6182.6800      0.59841650
       6184.1500      0.61601980
       6185.6200      0.61404660
       6187.0900      0.60402750
       6188.5600      0.62208690
       6190.0300      0.65457560
       6191.5000      0.68299670
       6192.9700      0.67232200
       6194.4400      0.62333220
       6195.9100      0.66324250
       6197.3800      0.68223280
       6198.8500      0.67855330
       6200.3200      0.70277770
       6201.7900      0.69165750
       6203.2600      0.68255450
       6204.7300      0.70913460
       6206.2000      0.71268720
       6207.6700      0.77396730
       6209.1400      0.80232950
       6210.6100      0.74735220
       6212.0800      0.80201790
       6213.5500      0.75634290
       6215.0200      0.77917800
       6216.4899      0.81709090
       6217.9600      0.77961050
       6219.4300      0.82082770
       6220.9000      0.84337580
       6222.3700      0.82667960
       6223.8400      0.82874320
       6225.3100      0.86698990
       6226.7800      0.86697830
       6228.2500      0.90227470
       6229.7200      0.90111670
       6231.1900      0.86405720
       6232.6600      0.86663230
       6234.1300      0.88443570
       6235.6000      0.91624870
       6237.0700      0.90663840
       6238.5400      0.90532860
       6240.0100      0.90895510
       6241.4800      0.96537630
       6242.9500      0.97472380
       6244.4200      0.91581540
       6245.8900      0.93208320
       6247.3600      0.93608990
       6248.8300      0.95327380
       6250.3000      0.96166990
       6251.7700      0.90789770
       6253.2400      0.92081640
       6254.7100      0.90333410
       6256.1800      0.92324190
       6257.6500      0.93095710
       6259.1200      0.97925640
       6260.5900      0.95523550
       6262.0600      0.94151460
       6263.5300      0.97046030
       6265.0000      0.92613760
       6266.4700      0.88322100
       6267.9400      0.91810640
       6269.4100      0.94940070
       6270.8800      0.95720110
       6272.3500      0.91595880
       6273.8200      0.93953690
       6275.2900      0.89935850
       6276.7600      0.90229260
       6278.2300      0.92409100
       6279.7000      0.90520050
       6281.1700      0.95635590
       6282.6400      0.99557880
       6284.1100      0.90915550
       6285.5800      0.91198460
       6287.0500      0.92633940
       6288.5200      0.94319430
       6289.9900      0.92423400
       6291.4600      0.96152600
       6292.9300      0.91939210
       6294.4000      0.93415930
       6295.8700      0.98003630
       6297.3400      0.96792910
       6298.8100      0.94210770
       6300.2800      0.93190850
       6301.7500      0.99231860
       6303.2200      0.94830690
       6304.6900      0.91748830
       6306.1600      0.90898140
       6307.6300      0.90918030
       6309.1000      0.87493860
       6310.5700      0.84932260
       6312.0400      0.87375690
       6313.5100      0.86531790
       6314.9800      0.89925880
       6316.4500      0.90015320
       6317.9200      0.89889260
       6319.3900      0.91730800
       6320.8600      0.88864910
       6322.3300      0.89001610
       6323.8000      0.91436210
       6325.2700      0.95118190
       6326.7400      0.89477140
       6328.2100      0.85346420
       6329.6800      0.88010930
       6331.1500      0.91725820
       6332.6200      0.89716850
       6334.0900      0.85971340
       6335.5600      0.86579850
       6337.0300      0.84348370
       6338.5000      0.86495410
       6339.9700      0.86450680
       6341.4400      0.83910170
       6342.9100      0.84037840
       6344.3800      0.82023530
       6345.8500      0.83585280
       6347.3200      0.86410500
       6348.7900      0.84649900
       6350.2600      0.81092170
       6351.7300      0.81212820
       6353.2000      0.83234240
       6354.6700      0.82262200
       6356.1400      0.83573910
       6357.6100      0.84162580
       6359.0800      0.80567570
       6360.5500      0.84691860
       6362.0200      0.81843610
       6363.4900      0.74778410
       6364.9600      0.84706850
       6366.4300      0.84297440
       6367.9000      0.75916360
       6369.3700      0.73938540
       6370.8400      0.77289270
       6372.3100      0.84752660
       6373.7800      0.80335300
       6375.2500      0.73901460
       6376.7200      0.78614990
       6378.1900      0.81162210
       6379.6600      0.80789240
       6381.1300      0.79827180
       6382.6000      0.77070860
       6384.0700      0.79353620
       6385.5400      0.75121330
       6387.0100      0.73529680
       6388.4800      0.75405110
       6389.9500      0.75221680
       6391.4200      0.71737440
       6392.8900      0.69012700
       6394.3600      0.71933660
       6395.8300      0.73551920
       6397.3000      0.75702990
       6398.7700      0.75385220
       6400.2400      0.71915700
       6401.7100      0.69727310
       6403.1800      0.71713790
       6404.6500      0.71975770
       6406.1200      0.71616450
       6407.5900      0.70939760
       6409.0600      0.70616690
       6410.5300      0.76384000
       6412.0000      0.78337180
       6413.4700      0.71258610
       6414.9400      0.71716180
       6416.4100      0.66392100
       6417.8800      0.69628370
       6419.3500      0.72724880
       6420.8200      0.71301780
       6422.2900      0.69723420
       6423.7600      0.70468970
       6425.2300      0.64786290
       6426.7000      0.67595390
       6428.1700      0.73235380
       6429.6400      0.69451980
       6431.1100      0.67992110
       6432.5800      0.67524300
       6434.0500      0.72549720
       6435.5200      0.73974130
       6436.9900      0.67450580
       6438.4600      0.74186280
       6439.9300      0.68790570
       6441.4000      0.70626470
       6442.8700      0.71081940
       6444.3400      0.68137630
       6445.8100      0.74956280
       6447.2800      0.73674370
       6448.7500      0.75055650
       6450.2200      0.73204450
       6451.6900      0.72762700
       6453.1600      0.72892390
       6454.6300      0.69161680
       6456.1000      0.71600390
       6457.5700      0.72105410
       6459.0400      0.77524790
       6460.5100      0.76156260
       6461.9800      0.75481430
       6463.4500      0.70220080
       6464.9200      0.73151250
       6466.3900      0.78006560
       6467.8600      0.78174420
       6469.3300      0.75181630
       6470.8000      0.79284180
       6472.2700      0.75658860
       6473.7400      0.74182970
       6475.2100      0.76480560
       6476.6800      0.78653090
       6478.1500      0.76851420
       6479.6200      0.71306160
       6481.0900      0.71281220
       6482.5600      0.72997390
       6484.0300      0.75705850
       6485.5000      0.73601540
       6486.9700      0.71605820
       6488.4400      0.71088910
       6489.9100      0.76566490
       6491.3800      0.75216000
       6492.8500      0.73567650
       6494.3200      0.77219010
       6495.7900      0.75036780
       6497.2600      0.70020410
       6498.7300      0.70799860
       6500.2000      0.75136170
       6501.6700      0.72844430
       6503.1400      0.74765360
       6504.6100      0.73871240
       6506.0800      0.73905970
       6507.5500      0.73842760
       6509.0200      0.72919430
       6510.4900      0.72893960
       6511.9600      0.69613580
       6513.4300      0.69696680
       6514.9000      0.72167780
       6516.3700      0.73597290
       6517.8400      0.71900090
       6519.3100      0.76897610
       6520.7800      0.71582660
       6522.2500      0.72821750
       6523.7200      0.71494150
       6525.1900      0.72590050
       6526.6600      0.69098770
       6528.1300      0.68416320
       6529.5999      0.68388780
       6531.0700      0.65379120
       6532.5400      0.69003410
       6534.0100      0.69964920
       6535.4800      0.69821470
       6536.9500      0.70632890
       6538.4200      0.70343260
       6539.8900      0.66997220
       6541.3600      0.67177670
       6542.8300      0.71771050
       6544.3000      0.71752550
       6545.7700      0.68784620
       6547.2400      0.71412360
       6548.7100      0.67987670
       6550.1800      0.68880360
       6551.6500      0.69228680
       6553.1200      0.72747540
       6554.5900      0.71046110
       6556.0600      0.71499120
       6557.5300      0.69182260
       6559.0000      0.69083730
       6560.4700      0.68128050
       6561.9400      0.68948110
       6563.4100      0.74660400
       6564.8800      0.71651170
       6566.3500      0.68356010
       6567.8200      0.73578690
       6569.2900      0.68521970
       6570.7600      0.64700390
       6572.2300      0.69069710
       6573.7000      0.70474820
       6575.1700      0.70804710
       6576.6400      0.70438290
       6578.1100      0.70998100
       6579.5800      0.70596830
       6581.0500      0.73436260
       6582.5200      0.72933880
       6583.9900      0.70507880
       6585.4600      0.72900890
       6586.9300      0.74332620
       6588.4000      0.73349610
       6589.8700      0.75971490
       6591.3400      0.81801120
       6592.8100      0.84066880
       6594.2800      0.87669420
       6595.7500      0.85635920
       6597.2200      0.75172420
       6598.6900      0.67935310
       6600.1600      0.66450970
       6601.6300      0.69553990
       6603.1000      0.69581380
       6604.5700      0.65439040
       6606.0400      0.65520770
       6607.5100      0.65684960
       6608.9800      0.66696880
       6610.4500      0.71240430
       6611.9200      0.74824450
       6613.3900      0.73444870
       6614.8600      0.70014910
       6616.3300      0.71696340
       6617.8000      0.67002280
       6619.2700      0.66658400
       6620.7400      0.70720150
       6622.2100      0.70407450
       6623.6800      0.67923590
       6625.1500      0.66603570
       6626.6200      0.66989700
       6628.0900      0.67992870
       6629.5600      0.67209060
       6631.0300      0.65765180
       6632.5000      0.64734380
       6633.9700      0.62394430
       6635.4400      0.63408210
       6636.9100      0.69344840
       6638.3800      0.69474630
       6639.8500      0.64800410
       6641.3200      0.65952030
       6642.7900      0.65666280
       6644.2600      0.63053810
       6645.7300      0.59986750
       6647.2000      0.59965350
       6648.6700      0.60513510
       6650.1400      0.64313460
       6651.6100      0.62576310
       6653.0800      0.63382300
       6654.5500      0.60437850
       6656.0200      0.58854910
       6657.4900      0.59524910
       6658.9600      0.62456890
       6660.4300      0.60711540
       6661.9000      0.58769790
       6663.3700      0.61617930
       6664.8400      0.57409330
       6666.3100      0.56808850
       6667.7800      0.60032800
       6669.2500      0.61492290
       6670.7200      0.62881620
       6672.1900      0.59776090
       6673.6600      0.62736080
       6675.1300      0.65866220
       6676.6000      0.63855750
       6678.0700      0.57653030
       6679.5400      0.63735660
       6681.0100      0.61245100
       6682.4800      0.58602050
       6683.9500      0.57182570
       6685.4200      0.58944870
       6686.8900      0.59149900
       6688.3600      0.56473000
       6689.8300      0.56134280
       6691.3000      0.61351870
       6692.7700      0.58688320
       6694.2400      0.58901100
       6695.7100      0.61028540
       6697.1800      0.61425950
       6698.6500      0.58800720
       6700.1200      0.61351900
       6701.5900      0.56499590
       6703.0600      0.54162600
       6704.5300      0.55007220
       6706.0000      0.58129130
       6707.4700      0.56921080
       6708.9400      0.56199480
       6710.4100      0.54686140
       6711.8800      0.54053970
       6713.3500      0.56093930
       6714.8200      0.55305670
       6716.2900      0.52889350
       6717.7600      0.56690150
       6719.2300      0.58227240
       6720.7000      0.56719990
       6722.1700      0.52924470
       6723.6400      0.49218390
       6725.1100      0.50529090
       6726.5800      0.54585490
       6728.0500      0.52558700
       6729.5200      0.51286330
       6730.9900      0.50235630
       6732.4600      0.50436360
       6733.9300      0.56453730
       6735.4000      0.55997230
       6736.8700      0.53656310
       6738.3400      0.52563330
       6739.8100      0.53709380
       6741.2800      0.51914860
       6742.7500      0.52348980
       6744.2200      0.54249890
       6745.6900      0.56817720
       6747.1600      0.54942290
       6748.6300      0.51652150
       6750.1000      0.51085970
       6751.5700      0.52212200
       6753.0400      0.50143990
       6754.5100      0.46844480
       6755.9800      0.49975300
       6757.4500      0.45520800
       6758.9200      0.46876620
       6760.3900      0.49500140
       6761.8600      0.50027340
       6763.3300      0.49898650
       6764.8000      0.50044950
       6766.2700      0.48568810
       6767.7400      0.48743290
       6769.2100      0.51487180
       6770.6800      0.48306710
       6772.1500      0.46784840
       6773.6200      0.46733170
       6775.0900      0.46695930
       6776.5600      0.48485730
       6778.0300      0.46943230
       6779.5000      0.46404700
       6780.9700      0.44349870
       6782.4400      0.47917010
       6783.9100      0.46190610
       6785.3800      0.45833250
       6786.8500      0.50523890
       6788.3200      0.49894330
       6789.7900      0.49012170
       6791.2600      0.48394620
       6792.7300      0.47759070
       6794.2000      0.46028360
       6795.6700      0.45721580
       6797.1400      0.46817730
       6798.6100      0.49292060
       6800.0800      0.48506930
       6801.5500      0.50154530
       6803.0200      0.52234180
       6804.4900      0.50983070
       6805.9600      0.47792030
       6807.4300      0.47178910
       6808.9000      0.48143700
       6810.3700      0.50007490
       6811.8400      0.48694900
       6813.3100      0.49171620
       6814.7800      0.50552510
       6816.2500      0.48369910
       6817.7200      0.50836230
       6819.1900      0.52877580
       6820.6600      0.49761010
       6822.1300      0.47316370
       6823.6000      0.49741910
       6825.0700      0.51054690
       6826.5400      0.48606740
       6828.0100      0.47572430
       6829.4800      0.46879970
       6830.9500      0.47568120
       6832.4200      0.48927940
       6833.8900      0.48390990
       6835.3600      0.50257810
       6836.8300      0.51353450
       6838.3000      0.49221330
       6839.7700      0.48917000
       6841.2400      0.50125960
       6842.7099      0.48411550
       6844.1800      0.46138550
       6845.6500      0.48274090
       6847.1200      0.47328370
       6848.5900      0.45595540
       6850.0600      0.48135290
       6851.5300      0.47970940
       6853.0000      0.46233950
       6854.4700      0.43879660
       6855.9400      0.45381830
       6857.4100      0.45983740
       6858.8800      0.42795560
       6860.3500      0.44576230
       6861.8200      0.44599510
       6863.2900      0.42466840
       6864.7600      0.45488720
       6866.2300      0.46525730
       6867.7000      0.43641650
       6869.1700      0.46045650
       6870.6400      0.53167690
       6872.1100      0.49720450
       6873.5800      0.44905560
       6875.0500      0.45065850
       6876.5200      0.47369620
       6877.9900      0.43095220
       6879.4600      0.42057730
       6880.9300      0.42166530
       6882.4000      0.46347880
       6883.8700      0.45416270
       6885.3400      0.39617990
       6886.8100      0.40851010
       6888.2800      0.36994950
       6889.7500      0.37480500
       6891.2200      0.42323150
       6892.6900      0.41862060
       6894.1600      0.43256230
       6895.6300      0.40319820
       6897.1000      0.39163230
       6898.5700      0.42086250
       6900.0400      0.42581350
       6901.5100      0.40388390
       6902.9800      0.41133240
       6904.4500      0.42316690
       6905.9200      0.42145300
       6907.3900      0.43463520
       6908.8600      0.38894410
       6910.3300      0.40639400
       6911.8000      0.41355400
       6913.2700      0.41244400
       6914.7400      0.41994520
       6916.2100      0.43625180
       6917.6800      0.39150030
       6919.1500      0.37930870
       6920.6200      0.39129330
       6922.0900      0.37658910
       6923.5600      0.40138860
       6925.0300      0.40486840
       6926.5000      0.37741400
       6927.9700      0.38278930
       6929.4400      0.41127720
       6930.9100      0.41470610
       6932.3800      0.38432630
       6933.8500      0.38901820
       6935.3200      0.46271410
       6936.7900      0.42450560
       6938.2600      0.43762030
       6939.7300      0.47530620
       6941.2000      0.46251590
       6942.6700      0.45175140
       6944.1400      0.40651250
       6945.6100      0.42051870
       6947.0800      0.45394030
       6948.5500      0.44464090
       6950.0200      0.44945740
       6951.4900      0.47456180
       6952.9600      0.46304630
       6954.4300      0.47662460
       6955.9000      0.46758100
       6957.3700      0.47885280
       6958.8400      0.46044720
       6960.3100      0.44008330
       6961.7800      0.46628520
       6963.2500      0.46411530
       6964.7200      0.46866210
       6966.1900      0.46176530
       6967.6600      0.46594060
       6969.1300      0.49119450
       6970.6000      0.48609060
       6972.0700      0.45646080
       6973.5400      0.45726440
       6975.0100      0.46663980
       6976.4800      0.47215130
       6977.9500      0.49641280
       6979.4200      0.52230730
       6980.8900      0.53260210
       6982.3600      0.49779870
       6983.8300      0.49266300
       6985.3000      0.49835700
       6986.7700      0.51481910
       6988.2400      0.55252090
       6989.7100      0.47651760
       6991.1800      0.48660570
       6992.6500      0.47607370
       6994.1200      0.48912140
       6995.5900      0.50695250
       6997.0600      0.52020510
       6998.5300      0.50751950
       7000.0000      0.51635910
       7001.4700      0.50935600
       7002.9400      0.50275220
       7004.4100      0.54107150
       7005.8800      0.55404310
       7007.3500      0.55668550
       7008.8200      0.56487950
       7010.2900      0.51728790
       7011.7600      0.47517710
       7013.2300      0.48083170
       7014.7000      0.57882740
       7016.1700      0.62398860
       7017.6400      0.56492160
       7019.1100      0.50621800
       7020.5800      0.51035770
       7022.0500      0.50913040
       7023.5200      0.50365350
       7024.9900      0.51325950
       7026.4600      0.52957200
       7027.9300      0.49054590
       7029.4000      0.47425710
       7030.8700      0.51907360
       7032.3400      0.50552870
       7033.8100      0.49871220
       7035.2800      0.47305550
       7036.7500      0.49756340
       7038.2200      0.53668250
       7039.6900      0.53732650
       7041.1600      0.52775990
       7042.6300      0.52438800
       7044.1000      0.52493490
       7045.5700      0.50635500
       7047.0400      0.48852430
       7048.5100      0.46855060
       7049.9800      0.48267700
       7051.4500      0.50268350
       7052.9200      0.50134790
       7054.3900      0.47912300
       7055.8600      0.48959150
       7057.3300      0.48937230
       7058.8000      0.47841390
       7060.2700      0.48514000
       7061.7400      0.49827110
       7063.2100      0.51650450
       7064.6800      0.50745950
       7066.1500      0.47809010
       7067.6200      0.45758260
       7069.0900      0.45463290
       7070.5600      0.50757150
       7072.0300      0.50514250
       7073.5000      0.47671220
       7074.9700      0.50493560
       7076.4400      0.53054470
       7077.9100      0.48318470
       7079.3800      0.45206620
       7080.8500      0.48178740
       7082.3200      0.51474720
       7083.7900      0.50633900
       7085.2600      0.49874810
       7086.7300      0.52640210
       7088.2000      0.50781210
       7089.6700      0.48363960
       7091.1400      0.47764810
       7092.6100      0.44852580
       7094.0800      0.46829760
       7095.5500      0.49402540
       7097.0200      0.50101290
       7098.4900      0.50568800
       7099.9600      0.49894380
       7101.4300      0.49274600
       7102.9000      0.48712380
       7104.3700      0.47631370
       7105.8400      0.48722570
       7107.3100      0.48143650
       7108.7800      0.46658600
       7110.2500      0.47690940
       7111.7200      0.50256400
       7113.1900      0.53844850
       7114.6600      0.50501810
       7116.1300      0.47522520
       7117.6000      0.51118630
       7119.0700      0.52180100
       7120.5400      0.52273630
       7122.0100      0.50455720
       7123.4800      0.47677370
       7124.9500      0.47316860
       7126.4200      0.46698840
       7127.8900      0.46966980
       7129.3600      0.49549230
       7130.8300      0.50336130
       7132.3000      0.48052310
       7133.7700      0.45486820
       7135.2400      0.45551600
       7136.7100      0.47877300
       7138.1800      0.47395690
       7139.6500      0.47283160
       7141.1200      0.48998100
       7142.5900      0.50108680
       7144.0600      0.49309850
       7145.5300      0.48068090
       7147.0000      0.49976340
       7148.4700      0.50887920
       7149.9400      0.48754760
       7151.4100      0.48673900
       7152.8800      0.49074890
       7154.3500      0.47625430
       7155.8199      0.48585670
       7157.2900      0.50954460
       7158.7600      0.53140900
       7160.2300      0.53410550
       7161.7000      0.50035930
       7163.1700      0.48947020
       7164.6400      0.51172300
       7166.1100      0.51649310
       7167.5800      0.52948480
       7169.0500      0.56558400
       7170.5200      0.58517310
       7171.9900      0.56042160
       7173.4600      0.54224490
       7174.9300      0.56336000
       7176.4000      0.56994970
       7177.8700      0.56338800
       7179.3400      0.56522760
       7180.8100      0.54841560
       7182.2800      0.52866720
       7183.7500      0.53192130
       7185.2200      0.55610180
       7186.6900      0.55213420
       7188.1600      0.52182960
       7189.6300      0.51467020
       7191.1000      0.51748470
       7192.5700      0.53294470
       7194.0400      0.55997190
       7195.5100      0.56513260
       7196.9800      0.58369550
       7198.4500      0.57017710
       7199.9200      0.55567510
       7201.3900      0.58940130
       7202.8600      0.59585820
       7204.3300      0.59707250
       7205.8000      0.64766130
       7207.2700      0.52006490
       7208.7400      0.27987000
       7210.2100      0.43542000
       7211.6800      0.57753450
       7213.1500      0.56513640
       7214.6200      0.57135330
       7216.0900      0.57019230
       7217.5600      0.55791430
       7219.0300      0.52657080
       7220.5000      0.48547940
       7221.9700      0.48953700
       7223.4400      0.52356520
       7224.9100      0.52184070
       7226.3800      0.50739840
       7227.8500      0.52208820
       7229.3200      0.55305830
       7230.7900      0.56774270
       7232.2600      0.59113250
       7233.7300      0.59228040
       7235.2000      0.57236440
       7236.6700      0.58326950
       7238.1400      0.58496830
       7239.6100      0.59120470
       7241.0800      0.64340660
       7242.5500      0.67300280
       7244.0200      0.66702290
       7245.4900      0.65518080
       7246.9600      0.67289360
       7248.4300      0.66912050
       7249.9000      0.64078060
       7251.3700      0.66284050
       7252.8400      0.67750560
       7254.3100      0.64410340
       7255.7800      0.59483280
       7257.2500      0.56981020
       7258.7200      0.58554710
       7260.1900      0.62915240
       7261.6600      0.65763290
       7263.1300      0.61316560
       7264.6000      0.58643900
       7266.0700      0.59713480
       7267.5400      0.59939250
       7269.0100      0.58859210
       7270.4800      0.61784590
       7271.9500      0.63925970
       7273.4200      0.66562200
       7274.8900      0.69622050
       7276.3600      0.71090480
       7277.8300      0.69055240
       7279.3000      0.69759580
       7280.7700      0.70532450
       7282.2400      0.70940900
       7283.7100      0.70479510
       7285.1800      0.68113860
       7286.6500      0.68573020
       7288.1200      0.68286650
       7289.5900      0.68058660
       7291.0600      0.67352110
       7292.5300      0.71781220
       7294.0000      0.73078610
       7295.4700      0.68066630
       7296.9400      0.67951490
       7298.4100      0.70151540
       7299.8800      0.68420980
       7301.3500      0.66536180
       7302.8200      0.67984380
       7304.2900      0.72017400
       7305.7600      0.72402380
       7307.2300      0.70885350
       7308.7000      0.69512680
       7310.1700      0.68589610
       7311.6400      0.68631830
       7313.1100      0.66933120
       7314.5800      0.70661290
       7316.0500      0.73273060
       7317.5200      0.73602740
       7318.9900      0.73485290
       7320.4600      0.71347070
       7321.9300      0.73594080
       7323.4000      0.74925930
       7324.8700      0.74308010
       7326.3400      0.73244120
       7327.8100      0.69279520
       7329.2800      0.66938130
       7330.7500      0.69586480
       7332.2200      0.72092570
       7333.6900      0.69393780
       7335.1600      0.67238550
       7336.6300      0.64560380
       7338.1000      0.63788740
       7339.5700      0.64680430
       7341.0400      0.62701440
       7342.5100      0.64341650
       7343.9800      0.64693160
       7345.4500      0.64355150
       7346.9200      0.62448180
       7348.3900      0.62253090
       7349.8600      0.64841380
       7351.3300      0.64504330
       7352.8000      0.68123360
       7354.2700      0.69118150
       7355.7400      0.65163840
       7357.2100      0.67791850
       7358.6800      0.72171830
       7360.1500      0.71940000
       7361.6200      0.72054700
       7363.0900      0.71692030
       7364.5600      0.68641750
       7366.0300      0.65341330
       7367.5000      0.66811780
       7368.9700      0.64305340
       7370.4400      0.59710330
       7371.9100      0.61364080
       7373.3800      0.62563440
       7374.8500      0.60451360
       7376.3200      0.60875470
       7377.7900      0.63362570
       7379.2600      0.61501740
       7380.7300      0.59755910
       7382.2000      0.60269060
       7383.6700      0.61659400
       7385.1400      0.61158390
       7386.6100      0.61105760
       7388.0800      0.63350910
       7389.5500      0.61452760
       7391.0200      0.60193230
       7392.4900      0.59409950
       7393.9600      0.57705420
       7395.4300      0.58359930
       7396.9000      0.59744870
       7398.3700      0.61384210
       7399.8400      0.60698680
       7401.3100      0.58311920
       7402.7800      0.58472310
       7404.2500      0.61188100
       7405.7200      0.58663460
       7407.1900      0.55379550
       7408.6600      0.55210410
       7410.1300      0.58261560
       7411.6000      0.60502000
       7413.0700      0.59016050
       7414.5400      0.56767790
