Units are: observed wavelength (Ang), observed flux (10^-15 erg/s/cm^2/Ang)
       4239.7950      0.30874380
       4241.0671      0.29877620
       4242.3393      0.32763710
       4243.6115      0.35253410
       4244.8837      0.32100450
       4246.1558      0.25431990
       4247.4281      0.29741360
       4248.7003      0.30211420
       4249.9724      0.31436060
       4251.2446      0.32341430
       4252.5168      0.31183050
       4253.7891      0.36272620
       4255.0612      0.31641850
       4256.3334      0.35700210
       4257.6056      0.32461930
       4258.8777      0.32644010
       4260.1499      0.38452220
       4261.4222      0.40252770
       4262.6944      0.35527010
       4263.9665      0.36167630
       4265.2387      0.32369870
       4266.5109      0.31825380
       4267.7830      0.30709250
       4269.0553      0.33611330
       4270.3275      0.28528250
       4271.5997      0.33003230
       4272.8718      0.32500370
       4274.1440      0.32944350
       4275.4163      0.36020770
       4276.6884      0.34539610
       4277.9606      0.30600740
       4279.2328      0.27906750
       4280.5049      0.31276620
       4281.7771      0.29442840
       4283.0494      0.25303420
       4284.3216      0.32992030
       4285.5937      0.33840420
       4286.8659      0.29629090
       4288.1381      0.32749100
       4289.4102      0.36711270
       4290.6825      0.33148370
       4291.9547      0.30875580
       4293.2269      0.29349130
       4294.4990      0.33514790
       4295.7712      0.32135140
       4297.0435      0.35625460
       4298.3156      0.32664900
       4299.5878      0.28019430
       4300.8600      0.27622180
       4302.1322      0.31529340
       4303.4043      0.26144810
       4304.6766      0.30712340
       4305.9488      0.28799940
       4307.2209      0.33031540
       4308.4931      0.35779870
       4309.7653      0.34731880
       4311.0374      0.32556340
       4312.3097      0.31155540
       4313.5819      0.29550350
       4314.8541      0.32777500
       4316.1262      0.34815610
       4317.3984      0.31024890
       4318.6707      0.27879850
       4319.9428      0.27195310
       4321.2150      0.25981600
       4322.4872      0.30127420
       4323.7594      0.31902180
       4325.0315      0.34192730
       4326.3038      0.28146800
       4327.5760      0.35793170
       4328.8481      0.26232270
       4330.1203      0.29146210
       4331.3925      0.30166900
       4332.6647      0.31937280
       4333.9369      0.34518010
       4335.2091      0.32365210
       4336.4813      0.33561010
       4337.7534      0.29482460
       4339.0256      0.25910440
       4340.2979      0.32609380
       4341.5701      0.32341720
       4342.8422      0.32271960
       4344.1144      0.31167720
       4345.3866      0.32937080
       4346.6587      0.30287680
       4347.9310      0.30639840
       4349.2032      0.31831430
       4350.4753      0.36553730
       4351.7475      0.37718820
       4353.0197      0.34658720
       4354.2919      0.31789410
       4355.5641      0.33531010
       4356.8363      0.30973810
       4358.1085      0.32601490
       4359.3806      0.35105000
       4360.6528      0.34644570
       4361.9251      0.34351040
       4363.1973      0.31543200
       4364.4694      0.30467750
       4365.7416      0.30151890
       4367.0138      0.30297880
       4368.2859      0.33814200
       4369.5582      0.35502120
       4370.8304      0.27690800
       4372.1026      0.31812020
       4373.3747      0.33201720
       4374.6469      0.34896780
       4375.9191      0.37046590
       4377.1913      0.37458480
       4378.4635      0.31921430
       4379.7357      0.35512560
       4381.0078      0.32464120
       4382.2800      0.27580970
       4383.5523      0.32772730
       4384.8245      0.30684220
       4386.0966      0.30816960
       4387.3688      0.33277810
       4388.6410      0.32445370
       4389.9131      0.32099490
       4391.1854      0.33386740
       4392.4576      0.34557500
       4393.7298      0.30885060
       4395.0019      0.29875990
       4396.2741      0.30589220
       4397.5463      0.31076530
       4398.8185      0.33813210
       4400.0907      0.28985120
       4401.3629      0.31150580
       4402.6351      0.30941230
       4403.9072      0.28467980
       4405.1795      0.28320600
       4406.4517      0.31974520
       4407.7238      0.33177670
       4408.9960      0.30820480
       4410.2682      0.26001130
       4411.5404      0.27975260
       4412.8126      0.29949500
       4414.0848      0.30244720
       4415.3570      0.29494370
       4416.6291      0.28046700
       4417.9013      0.27254450
       4419.1735      0.25516170
       4420.4457      0.28255500
       4421.7179      0.31635930
       4422.9901      0.27916320
       4424.2623      0.26680120
       4425.5344      0.31201670
       4426.8067      0.30481950
       4428.0789      0.25953630
       4429.3510      0.27706420
       4430.6232      0.24860580
       4431.8954      0.24319360
       4433.1676      0.26081060
       4434.4398      0.26054700
       4435.7120      0.26466160
       4436.9842      0.27523280
       4438.2563      0.27219930
       4439.5285      0.28028460
       4440.8007      0.28380060
       4442.0730      0.28167820
       4443.3451      0.24744140
       4444.6173      0.24017080
       4445.8895      0.27352230
       4447.1616      0.26040070
       4448.4339      0.26027310
       4449.7061      0.23919350
       4450.9782      0.24183620
       4452.2504      0.25618380
       4453.5226      0.24636530
       4454.7948      0.29257190
       4456.0670      0.24337020
       4457.3392      0.22556930
       4458.6114      0.27397660
       4459.8835      0.24978250
       4461.1557      0.27040590
       4462.4279      0.28985860
       4463.7002      0.22756560
       4464.9723      0.26800230
       4466.2445      0.26244180
       4467.5167      0.25378780
       4468.7888      0.22916080
       4470.0611      0.25375160
       4471.3333      0.25864430
       4472.6055      0.28136530
       4473.8776      0.28533970
       4475.1498      0.28244830
       4476.4220      0.25761390
       4477.6942      0.29328810
       4478.9664      0.29740860
       4480.2386      0.28264090
       4481.5108      0.28072670
       4482.7829      0.31816280
       4484.0551      0.27826480
       4485.3274      0.29340400
       4486.5995      0.33017480
       4487.8717      0.31370010
       4489.1439      0.32323880
       4490.4160      0.30657970
       4491.6883      0.30803450
       4492.9605      0.31441550
       4494.2327      0.32853010
       4495.5048      0.35899820
       4496.7770      0.36349120
       4498.0492      0.32617200
       4499.3214      0.31591660
       4500.5936      0.32135170
       4501.8658      0.37026790
       4503.1380      0.36650660
       4504.4101      0.35604440
       4505.6823      0.38752540
       4506.9546      0.38564110
       4508.2267      0.39777910
       4509.4989      0.38356180
       4510.7711      0.37695270
       4512.0433      0.39862240
       4513.3155      0.41022500
       4514.5877      0.40403030
       4515.8599      0.41710340
       4517.1320      0.44798690
       4518.4042      0.42324660
       4519.6764      0.43268770
       4520.9486      0.46007120
       4522.2208      0.46724750
       4523.4930      0.49061100
       4524.7652      0.48971380
       4526.0373      0.50008270
       4527.3095      0.49640030
       4528.5818      0.48629210
       4529.8539      0.47926570
       4531.1261      0.48890270
       4532.3983      0.52092160
       4533.6705      0.48251280
       4534.9427      0.49463280
       4536.2149      0.50261920
       4537.4871      0.52689350
       4538.7592      0.53580830
       4540.0314      0.50103930
       4541.3036      0.51062780
       4542.5759      0.52693990
       4543.8480      0.52733300
       4545.1202      0.56955930
       4546.3924      0.57958460
       4547.6645      0.58224070
       4548.9367      0.58446970
       4550.2090      0.56858040
       4551.4812      0.57325160
       4552.7533      0.57949610
       4554.0255      0.54240800
       4555.2977      0.56213810
       4556.5699      0.57394460
       4557.8421      0.59148440
       4559.1143      0.59194450
       4560.3864      0.60474160
       4561.6586      0.60557770
       4562.9308      0.58474480
       4564.2031      0.61177930
       4565.4752      0.59825150
       4566.7474      0.63675410
       4568.0196      0.63134260
       4569.2917      0.64108860
       4570.5639      0.63529940
       4571.8362      0.67018600
       4573.1084      0.62416810
       4574.3805      0.64673030
       4575.6527      0.64567020
       4576.9249      0.62799800
       4578.1971      0.63002110
       4579.4693      0.64002760
       4580.7415      0.64317240
       4582.0137      0.59258850
       4583.2858      0.63318890
       4584.5580      0.69791330
       4585.8303      0.69485530
       4587.1024      0.67040160
       4588.3746      0.68688790
       4589.6468      0.66633980
       4590.9190      0.68955200
       4592.1911      0.69240420
       4593.4634      0.68548740
       4594.7356      0.71038010
       4596.0077      0.73231480
       4597.2799      0.71007160
       4598.5521      0.69542050
       4599.8243      0.73129170
       4601.0965      0.73954270
       4602.3687      0.72448020
       4603.6409      0.69524990
       4604.9130      0.69905470
       4606.1852      0.70042850
       4607.4575      0.70257490
       4608.7296      0.69839810
       4610.0018      0.66973820
       4611.2740      0.63623080
       4612.5462      0.67415810
       4613.8183      0.65523640
       4615.0906      0.67045250
       4616.3628      0.69373790
       4617.6349      0.69172630
       4618.9071      0.66407920
       4620.1793      0.68364840
       4621.4516      0.68740590
       4622.7237      0.70088540
       4623.9959      0.73772840
       4625.2681      0.67190730
       4626.5402      0.68800580
       4627.8124      0.69935540
       4629.0847      0.67354810
       4630.3568      0.73060440
       4631.6290      0.72960880
       4632.9012      0.71796840
       4634.1734      0.71022030
       4635.4455      0.72192740
       4636.7178      0.70391010
       4637.9900      0.70887590
       4639.2621      0.69480000
       4640.5343      0.69954530
       4641.8065      0.71954460
       4643.0788      0.70909930
       4644.3509      0.70890480
       4645.6231      0.72069860
       4646.8953      0.72590610
       4648.1674      0.69290070
       4649.4396      0.67469940
       4650.7119      0.69673280
       4651.9841      0.68610690
       4653.2562      0.68585770
       4654.5284      0.68995630
       4655.8006      0.69653040
       4657.0727      0.69338270
       4658.3450      0.65529780
       4659.6172      0.64877730
       4660.8894      0.69185610
       4662.1615      0.68484370
       4663.4337      0.64820820
       4664.7060      0.64711700
       4665.9781      0.64301910
       4667.2503      0.68016600
       4668.5225      0.65356050
       4669.7946      0.64610910
       4671.0668      0.65496270
       4672.3391      0.63931820
       4673.6113      0.62566680
       4674.8834      0.62631000
       4676.1556      0.63636620
       4677.4278      0.62711340
       4678.6999      0.62507990
       4679.9722      0.62847820
       4681.2444      0.60362870
       4682.5166      0.59217640
       4683.7887      0.62351600
       4685.0609      0.57865690
       4686.3332      0.59965940
       4687.6053      0.60657920
       4688.8775      0.57894150
       4690.1497      0.56688690
       4691.4219      0.59867280
       4692.6940      0.60885350
       4693.9663      0.60067890
       4695.2385      0.57923800
       4696.5106      0.57812730
       4697.7828      0.58790010
       4699.0550      0.58051060
       4700.3271      0.58314970
       4701.5994      0.55574040
       4702.8716      0.56123270
       4704.1438      0.57734490
       4705.4159      0.55969140
       4706.6881      0.56281020
       4707.9604      0.53385680
       4709.2325      0.53964390
       4710.5047      0.55996850
       4711.7769      0.55607700
       4713.0491      0.52597100
       4714.3212      0.52678640
       4715.5935      0.51731990
       4716.8657      0.50572140
       4718.1378      0.48795730
       4719.4100      0.50229940
       4720.6822      0.49838030
       4721.9544      0.50047080
       4723.2266      0.49832360
       4724.4988      0.49184790
       4725.7710      0.51122650
       4727.0431      0.49018280
       4728.3153      0.49527510
       4729.5876      0.50630270
       4730.8598      0.50512980
       4732.1319      0.49805550
       4733.4041      0.48166260
       4734.6763      0.44892740
       4735.9484      0.47434820
       4737.2207      0.46768950
       4738.4929      0.47459880
       4739.7650      0.48076430
       4741.0372      0.45355260
       4742.3094      0.45865660
       4743.5816      0.47318860
       4744.8538      0.46348380
       4746.1260      0.48211900
       4747.3982      0.47013860
       4748.6703      0.47340430
       4749.9425      0.47737330
       4751.2148      0.45961240
       4752.4870      0.46688430
       4753.7591      0.46774940
       4755.0313      0.45693180
       4756.3035      0.44306010
       4757.5756      0.47465050
       4758.8479      0.47665300
       4760.1201      0.46955860
       4761.3923      0.47903780
       4762.6644      0.45564850
       4763.9366      0.43660380
       4765.2088      0.43495720
       4766.4810      0.45793080
       4767.7532      0.45437570
       4769.0254      0.44381990
       4770.2975      0.44702260
       4771.5697      0.47676840
       4772.8420      0.45578930
       4774.1142      0.43269310
       4775.3863      0.44187540
       4776.6585      0.43594370
       4777.9307      0.44504200
       4779.2028      0.42648640
       4780.4751      0.44165880
       4781.7473      0.44043440
       4783.0195      0.40881430
       4784.2916      0.41724510
       4785.5638      0.44125570
       4786.8360      0.45086720
       4788.1082      0.42857950
       4789.3804      0.42834100
       4790.6526      0.40301290
       4791.9248      0.40078900
       4793.1969      0.40553210
       4794.4692      0.39349650
       4795.7414      0.39859150
       4797.0135      0.39462440
       4798.2857      0.38713450
       4799.5579      0.38579960
       4800.8301      0.36664050
       4802.1023      0.36749420
       4803.3745      0.37453360
       4804.6467      0.34884310
       4805.9188      0.36069980
       4807.1910      0.34328650
       4808.4632      0.36178590
       4809.7354      0.37192170
       4811.0076      0.37194360
       4812.2798      0.34503290
       4813.5520      0.34997550
       4814.8241      0.35369850
       4816.0964      0.34483640
       4817.3686      0.35042330
       4818.6407      0.33387640
       4819.9129      0.31654500
       4821.1851      0.32202900
       4822.4573      0.32987440
       4823.7295      0.32381120
       4825.0017      0.34027740
       4826.2739      0.33322770
       4827.5460      0.33152870
       4828.8182      0.34203360
       4830.0904      0.30007720
       4831.3627      0.29547070
       4832.6348      0.32674860
       4833.9070      0.31172560
       4835.1792      0.32511080
       4836.4513      0.32763050
       4837.7236      0.34462450
       4838.9958      0.34125480
       4840.2679      0.34050760
       4841.5401      0.34432720
       4842.8123      0.35292470
       4844.0845      0.36682950
       4845.3567      0.37177950
       4846.6289      0.38217910
       4847.9011      0.35732360
       4849.1732      0.34874590
       4850.4454      0.36124570
       4851.7176      0.37276310
       4852.9899      0.36880120
       4854.2620      0.36068980
       4855.5342      0.36295010
       4856.8064      0.35404920
       4858.0785      0.39300420
       4859.3508      0.39669450
       4860.6230      0.38466770
       4861.8952      0.39196780
       4863.1673      0.39646000
       4864.4395      0.38647350
       4865.7117      0.38339560
       4866.9839      0.39807570
       4868.2561      0.39988520
       4869.5283      0.40589130
       4870.8005      0.41451040
       4872.0726      0.42309940
       4873.3448      0.41441240
       4874.6171      0.41226850
       4875.8892      0.42115600
       4877.1614      0.41283240
       4878.4336      0.43155790
       4879.7057      0.43569870
       4880.9780      0.43018370
       4882.2502      0.42559400
       4883.5224      0.45750040
       4884.7945      0.44994710
       4886.0667      0.41313590
       4887.3389      0.42407850
       4888.6111      0.43267800
       4889.8833      0.40695930
       4891.1555      0.41925750
       4892.4277      0.42544900
       4893.6998      0.41080190
       4894.9720      0.41750080
       4896.2443      0.41712920
       4897.5164      0.39959040
       4898.7886      0.40535560
       4900.0608      0.40861180
       4901.3330      0.40972390
       4902.6052      0.40687360
       4903.8774      0.40688840
       4905.1496      0.40838390
       4906.4217      0.41212420
       4907.6939      0.42713810
       4908.9661      0.40956900
       4910.2384      0.39808010
       4911.5105      0.41202100
       4912.7827      0.41126470
       4914.0549      0.38804400
       4915.3270      0.38132110
       4916.5992      0.39645350
       4917.8715      0.38096590
       4919.1436      0.38638410
       4920.4158      0.38681830
       4921.6880      0.36245660
       4922.9602      0.37993610
       4924.2324      0.38316470
       4925.5046      0.37493280
       4926.7768      0.38658680
       4928.0489      0.37620360
       4929.3211      0.36780110
       4930.5933      0.38713550
       4931.8656      0.37842340
       4933.1377      0.38404010
       4934.4099      0.38821210
       4935.6821      0.38914850
       4936.9542      0.36143890
       4938.2264      0.38149940
       4939.4987      0.39340300
       4940.7709      0.38203640
       4942.0430      0.38652950
       4943.3152      0.38682660
       4944.5874      0.37889370
       4945.8596      0.40640470
       4947.1318      0.40397490
       4948.4040      0.38682580
       4949.6761      0.39703200
       4950.9483      0.41071110
       4952.2205      0.40643510
       4953.4928      0.41188660
       4954.7649      0.40734290
       4956.0371      0.41211980
       4957.3093      0.43466260
       4958.5814      0.42873780
       4959.8536      0.42726440
       4961.1259      0.44761300
       4962.3981      0.45642820
       4963.6702      0.45740770
       4964.9424      0.45904500
       4966.2146      0.46596650
       4967.4868      0.47035820
       4968.7590      0.47986710
       4970.0312      0.50690410
       4971.3034      0.50467120
       4972.5755      0.48907420
       4973.8477      0.50644490
       4975.1200      0.51788820
       4976.3921      0.51782480
       4977.6643      0.49383620
       4978.9365      0.51543000
       4980.2087      0.55955560
       4981.4808      0.56824410
       4982.7531      0.57659370
       4984.0253      0.57298620
       4985.2974      0.56098070
       4986.5696      0.57449600
       4987.8418      0.55987170
       4989.1140      0.57986910
       4990.3862      0.58593860
       4991.6584      0.59024580
       4992.9306      0.56683610
       4994.2027      0.57099710
       4995.4749      0.58266870
       4996.7472      0.56631930
       4998.0193      0.58247640
       4999.2915      0.58619770
       5000.5637      0.60059980
       5001.8359      0.59281610
       5003.1080      0.58887680
       5004.3803      0.57386050
       5005.6525      0.59502350
       5006.9246      0.58961600
       5008.1968      0.55513480
       5009.4690      0.55207910
       5010.7413      0.52703670
       5012.0134      0.53269000
       5013.2856      0.53770410
       5014.5578      0.51875480
       5015.8299      0.51841880
       5017.1021      0.49652090
       5018.3744      0.47032290
       5019.6465      0.47801700
       5020.9187      0.46968160
       5022.1909      0.45064450
       5023.4631      0.44659870
       5024.7352      0.43790910
       5026.0075      0.44498160
       5027.2797      0.45129170
       5028.5518      0.44046080
       5029.8240      0.47810590
       5031.0962      0.48631360
       5032.3685      0.42933530
       5033.6406      0.38939560
       5034.9128      0.36713530
       5036.1850      0.38071070
       5037.4571      0.37575090
       5038.7293      0.36772340
       5040.0016      0.37187040
       5041.2738      0.35046470
       5042.5459      0.34894000
       5043.8181      0.33800040
       5045.0903      0.33175100
       5046.3625      0.33462690
       5047.6347      0.33453500
       5048.9069      0.30560830
       5050.1791      0.31069250
       5051.4512      0.30966720
       5052.7234      0.31052440
       5053.9957      0.32422170
       5055.2678      0.31615050
       5056.5400      0.30208010
       5057.8122      0.28809030
       5059.0843      0.28451400
       5060.3565      0.28921560
       5061.6288      0.28446620
       5062.9010      0.29020860
       5064.1731      0.28814820
       5065.4453      0.28133210
       5066.7175      0.27865950
       5067.9897      0.27810890
       5069.2619      0.26953350
       5070.5341      0.27410260
       5071.8063      0.26848780
       5073.0784      0.27095710
       5074.3506      0.27718720
       5075.6229      0.27481920
       5076.8950      0.26999800
       5078.1672      0.26054700
       5079.4394      0.27174250
       5080.7116      0.25990570
       5081.9837      0.27424450
       5083.2560      0.27420800
       5084.5282      0.26445750
       5085.8003      0.26734530
       5087.0725      0.28002490
       5088.3447      0.28011410
       5089.6169      0.27194500
       5090.8891      0.27617090
       5092.1613      0.27198940
       5093.4335      0.26948980
       5094.7056      0.26499920
       5095.9778      0.27487290
       5097.2501      0.28470860
       5098.5222      0.29444360
       5099.7944      0.28177350
       5101.0666      0.27269010
       5102.3388      0.28675860
       5103.6109      0.29616010
       5104.8832      0.29666910
       5106.1554      0.31196710
       5107.4275      0.30820370
       5108.6997      0.29923050
       5109.9719      0.28166790
       5111.2442      0.31310220
       5112.5163      0.31133040
       5113.7885      0.32976500
       5115.0607      0.31815830
       5116.3328      0.31969790
       5117.6050      0.34576870
       5118.8773      0.35270970
       5120.1495      0.34549720
       5121.4216      0.35347670
       5122.6938      0.35898450
       5123.9660      0.35828930
       5125.2381      0.36700570
       5126.5104      0.37553120
       5127.7826      0.39224730
       5129.0547      0.37570340
       5130.3269      0.37087380
       5131.5991      0.38455300
       5132.8714      0.38341650
       5134.1435      0.36869300
       5135.4157      0.39505040
       5136.6879      0.41098370
       5137.9600      0.40090340
       5139.2322      0.40383170
       5140.5045      0.39796700
       5141.7767      0.40161530
       5143.0488      0.40352590
       5144.3210      0.40633840
       5145.5932      0.41340620
       5146.8653      0.42510200
       5148.1376      0.42409540
       5149.4098      0.42548290
       5150.6820      0.43072290
       5151.9541      0.43359560
       5153.2263      0.43394740
       5154.4986      0.43276900
       5155.7707      0.43445260
       5157.0429      0.43673880
       5158.3151      0.44424200
       5159.5872      0.44158920
       5160.8594      0.44787780
       5162.1317      0.46822800
       5163.4039      0.44882570
       5164.6760      0.44581730
       5165.9482      0.44642370
       5167.2204      0.45533080
       5168.4925      0.44970960
       5169.7648      0.43675400
       5171.0370      0.45333600
       5172.3092      0.46353710
       5173.5813      0.44955200
       5174.8535      0.44750040
       5176.1258      0.45337100
       5177.3979      0.46431250
       5178.6701      0.45540370
       5179.9423      0.46700970
       5181.2145      0.45803490
       5182.4866      0.46335270
       5183.7589      0.45496490
       5185.0311      0.44965310
       5186.3032      0.45383130
       5187.5754      0.46753740
       5188.8476      0.46459730
       5190.1198      0.45550660
       5191.3920      0.47204580
       5192.6642      0.47487200
       5193.9364      0.46618480
       5195.2085      0.47262140
       5196.4807      0.46965040
       5197.7530      0.45287460
       5199.0251      0.47921570
       5200.2973      0.46766040
       5201.5695      0.46043930
       5202.8417      0.46942500
       5204.1138      0.47049950
       5205.3861      0.48284400
       5206.6583      0.47946230
       5207.9304      0.47803270
       5209.2026      0.46820710
       5210.4748      0.46433060
       5211.7470      0.44515000
       5213.0192      0.48785430
       5214.2914      0.47795660
       5215.5636      0.48432490
       5216.8357      0.47167220
       5218.1079      0.47212550
       5219.3802      0.48442950
       5220.6524      0.47501970
       5221.9245      0.47534770
       5223.1967      0.48081850
       5224.4689      0.49904150
       5225.7410      0.48576390
       5227.0133      0.48799800
       5228.2855      0.49629690
       5229.5577      0.48405380
       5230.8298      0.48823020
       5232.1020      0.49703890
       5233.3742      0.50447270
       5234.6464      0.50198540
       5235.9186      0.50756950
       5237.1908      0.52212800
       5238.4629      0.52471200
       5239.7351      0.52864800
       5241.0074      0.52068300
       5242.2796      0.54582230
       5243.5517      0.51398850
       5244.8239      0.50909390
       5246.0961      0.51474450
       5247.3682      0.53492600
       5248.6405      0.52692150
       5249.9127      0.51998310
       5251.1849      0.53112630
       5252.4570      0.52589970
       5253.7292      0.51777860
       5255.0014      0.53361910
       5256.2736      0.53711100
       5257.5458      0.54112890
       5258.8180      0.52690520
       5260.0902      0.54158900
       5261.3623      0.53669570
       5262.6346      0.53603780
       5263.9068      0.52319530
       5265.1789      0.51150370
       5266.4511      0.52925130
       5267.7233      0.54102730
       5268.9954      0.53448290
       5270.2677      0.52760010
       5271.5399      0.53816550
       5272.8121      0.54685840
       5274.0842      0.53535920
       5275.3564      0.53712420
       5276.6286      0.53464020
       5277.9008      0.53708600
       5279.1730      0.55064420
       5280.4452      0.55162300
       5281.7174      0.54691970
       5282.9895      0.56360600
       5284.2618      0.54304730
       5285.5340      0.53703730
       5286.8061      0.54946580
       5288.0783      0.56023700
       5289.3505      0.57311910
       5290.6227      0.58329870
       5291.8949      0.55778380
       5293.1671      0.56126930
       5294.4393      0.58103150
       5295.7114      0.57935650
       5296.9836      0.58470790
       5298.2558      0.60236870
       5299.5281      0.60171390
       5300.8002      0.58743190
       5302.0724      0.58164330
       5303.3446      0.56362120
       5304.6167      0.58158010
       5305.8890      0.60010930
       5307.1612      0.59212010
       5308.4333      0.58071770
       5309.7055      0.58395220
       5310.9777      0.59005070
       5312.2499      0.58000840
       5313.5221      0.58005930
       5314.7943      0.59216670
       5316.0665      0.59165780
       5317.3386      0.59458190
       5318.6108      0.58776710
       5319.8830      0.59714650
       5321.1553      0.58563950
       5322.4274      0.59022380
       5323.6996      0.58034400
       5324.9718      0.59066900
       5326.2439      0.59714300
       5327.5162      0.60466200
       5328.7884      0.59627980
       5330.0606      0.60055410
       5331.3327      0.60287190
       5332.6049      0.62127930
       5333.8771      0.62462430
       5335.1493      0.62246200
       5336.4215      0.61343540
       5337.6937      0.61156700
       5338.9658      0.61087670
       5340.2380      0.61148000
       5341.5102      0.62404420
       5342.7825      0.61962160
       5344.0546      0.59887020
       5345.3268      0.60325550
       5346.5990      0.61276220
       5347.8711      0.61947160
       5349.1434      0.61565250
       5350.4156      0.61016620
       5351.6878      0.60878760
       5352.9599      0.61992030
       5354.2321      0.61487860
       5355.5043      0.59913290
       5356.7765      0.61712130
       5358.0487      0.61608080
       5359.3209      0.60821570
       5360.5931      0.60688210
       5361.8652      0.60270350
       5363.1374      0.61954480
       5364.4097      0.61751130
       5365.6818      0.60588070
       5366.9540      0.60956760
       5368.2262      0.60729270
       5369.4984      0.59205480
       5370.7706      0.62026160
       5372.0428      0.61871480
       5373.3150      0.60930470
       5374.5871      0.61980290
       5375.8593      0.63818410
       5377.1315      0.63559530
       5378.4037      0.63543390
       5379.6759      0.62168130
       5380.9481      0.62076950
       5382.2203      0.64429210
       5383.4924      0.62513730
       5384.7646      0.61902860
       5386.0369      0.62569280
       5387.3090      0.61412720
       5388.5812      0.61480880
       5389.8534      0.62107580
       5391.1256      0.63648210
       5392.3978      0.63618020
       5393.6700      0.62930050
       5394.9422      0.62928410
       5396.2143      0.63154890
       5397.4865      0.63317620
       5398.7587      0.63411650
       5400.0310      0.62610700
       5401.3031      0.59931420
       5402.5753      0.61549690
       5403.8475      0.62993080
       5405.1196      0.61977110
       5406.3918      0.62617770
       5407.6641      0.63311850
       5408.9362      0.62469090
       5410.2084      0.62287230
       5411.4806      0.61981250
       5412.7528      0.60997820
       5414.0250      0.59844040
       5415.2972      0.61551090
       5416.5694      0.62214790
       5417.8415      0.59702580
       5419.1137      0.59475530
       5420.3859      0.57740620
       5421.6582      0.58132430
       5422.9303      0.56462300
       5424.2025      0.55069160
       5425.4747      0.56115460
       5426.7468      0.54839280
       5428.0190      0.54537130
       5429.2913      0.54561160
       5430.5635      0.53822830
       5431.8356      0.55144950
       5433.1078      0.54055890
       5434.3800      0.53463830
       5435.6522      0.52064890
       5436.9244      0.50958850
       5438.1966      0.50773120
       5439.4688      0.51163160
       5440.7409      0.50824300
       5442.0131      0.50455830
       5443.2854      0.49965080
       5444.5575      0.48019230
       5445.8297      0.47738660
       5447.1019      0.48041340
       5448.3740      0.47977030
       5449.6462      0.46931030
       5450.9185      0.46763600
       5452.1907      0.48606170
       5453.4628      0.47661940
       5454.7350      0.47277420
       5456.0072      0.46308660
       5457.2794      0.46367050
       5458.5516      0.45333120
       5459.8238      0.44640120
       5461.0960      0.45192950
       5462.3681      0.46698000
       5463.6403      0.46038150
       5464.9126      0.45158940
       5466.1847      0.46184010
       5467.4569      0.45204790
       5468.7291      0.46971770
       5470.0013      0.46058880
       5471.2734      0.45939740
       5472.5457      0.46938270
       5473.8179      0.47879160
       5475.0900      0.48537380
       5476.3622      0.48151590
       5477.6344      0.48688300
       5478.9066      0.51266370
       5480.1788      0.50730150
       5481.4510      0.52286900
       5482.7232      0.52209820
       5483.9953      0.52776530
       5485.2675      0.54639590
       5486.5398      0.55505010
       5487.8119      0.55158620
       5489.0841      0.55438410
       5490.3563      0.55197600
       5491.6285      0.56549500
       5492.9006      0.58634740
       5494.1729      0.59236080
       5495.4451      0.61470370
       5496.7172      0.61831260
       5497.9894      0.62278380
       5499.2616      0.62689060
       5500.5339      0.63718810
       5501.8060      0.65381750
       5503.0782      0.66685040
       5504.3504      0.67756160
       5505.6225      0.68576200
       5506.8947      0.68595030
       5508.1670      0.68447190
       5509.4392      0.71783670
       5510.7113      0.73700430
       5511.9835      0.72785070
       5513.2557      0.74967990
       5514.5278      0.76423540
       5515.8001      0.78597290
       5517.0723      0.80194380
       5518.3444      0.82328200
       5519.6166      0.82883040
       5520.8888      0.82426810
       5522.1611      0.84462200
       5523.4332      0.87880560
       5524.7054      0.88522470
       5525.9776      0.87464600
       5527.2497      0.89039910
       5528.5219      0.89210340
       5529.7942      0.91239600
       5531.0664      0.88114530
       5532.3385      0.89375120
       5533.6107      0.91021300
       5534.8829      0.92173340
       5536.1550      0.92599560
       5537.4273      0.93825980
       5538.6995      0.92082120
       5539.9717      0.91426160
       5541.2438      0.92343170
       5542.5160      0.94207330
       5543.7883      0.92435960
       5545.0604      0.89883920
       5546.3326      0.90777790
       5547.6048      0.90022330
       5548.8770      0.88314250
       5550.1491      0.86043270
       5551.4214      0.85557290
       5552.6936      0.86614430
       5553.9657      0.87696290
       5555.2379      0.88544670
       5556.5101      0.85557290
       5557.7822      0.83720200
       5559.0545      0.85632980
       5560.3267      0.82663980
       5561.5989      0.79874840
       5562.8710      0.80907830
       5564.1432      0.81967690
       5565.4155      0.80202330
       5566.6876      0.77906670
       5567.9598      0.77849480
       5569.2320      0.77254590
       5570.5042      0.75174660
       5571.7763      0.75038200
       5573.0486      0.74263360
       5574.3208      0.69324230
       5575.5929      0.69674500
       5576.8651      0.69346740
       5578.1373      0.69490730
       5579.4095      0.72295370
       5580.6817      0.68005770
       5581.9539      0.66095130
       5583.2261      0.65071540
       5584.4982      0.61312220
       5585.7704      0.59672660
       5587.0427      0.60902070
       5588.3148      0.59234710
       5589.5870      0.57510230
       5590.8592      0.56906830
       5592.1314      0.56746220
       5593.4035      0.55539240
       5594.6758      0.53232060
       5595.9480      0.53125830
       5597.2201      0.54276390
       5598.4923      0.53900880
       5599.7645      0.52249560
       5601.0367      0.52041350
       5602.3089      0.52292080
       5603.5811      0.51856390
       5604.8533      0.52098710
       5606.1254      0.51227930
       5607.3976      0.50521760
       5608.6699      0.50250640
       5609.9421      0.49688940
       5611.2142      0.51611190
       5612.4864      0.52229830
       5613.7586      0.52487230
       5615.0307      0.51756250
       5616.3030      0.51344880
       5617.5752      0.52017880
       5618.8474      0.50526030
       5620.1195      0.52860860
       5621.3917      0.53008510
       5622.6639      0.52637780
       5623.9361      0.51824470
       5625.2083      0.53193350
       5626.4805      0.53194620
       5627.7526      0.52596710
       5629.0248      0.54346260
       5630.2971      0.54447920
       5631.5693      0.54306240
       5632.8414      0.55761800
       5634.1136      0.56270250
       5635.3858      0.58103720
       5636.6579      0.58906360
       5637.9302      0.57372750
       5639.2024      0.58547100
       5640.4746      0.59894130
       5641.7467      0.59253800
       5643.0189      0.59509670
       5644.2911      0.60462450
       5645.5633      0.58823650
       5646.8355      0.57809920
       5648.1077      0.58681090
       5649.3799      0.59604100
       5650.6520      0.58712520
       5651.9243      0.58764140
       5653.1965      0.60260530
       5654.4686      0.58875560
       5655.7408      0.58391240
       5657.0130      0.60105170
       5658.2851      0.59827730
       5659.5574      0.58488720
       5660.8296      0.59144470
       5662.1018      0.58990730
       5663.3739      0.58863650
       5664.6461      0.57485690
       5665.9183      0.56139550
       5667.1905      0.54614350
       5668.4627      0.52209240
       5669.7349      0.50745820
       5671.0071      0.48059080
       5672.2792      0.47670800
       5673.5515      0.45562110
       5674.8237      0.44772740
       5676.0958      0.43374920
       5677.3680      0.42133410
       5678.6402      0.41656030
       5679.9124      0.40756810
       5681.1846      0.38529980
       5682.4568      0.38180750
       5683.7290      0.35115490
       5685.0011      0.35627460
       5686.2733      0.35200190
       5687.5455      0.35107220
       5688.8178      0.32575750
       5690.0899      0.33481030
       5691.3621      0.33655600
       5692.6343      0.32948270
       5693.9064      0.31638060
       5695.1787      0.30686460
       5696.4509      0.30512920
       5697.7230      0.29839710
       5698.9952      0.30098990
       5700.2674      0.30027030
       5701.5396      0.30028550
       5702.8118      0.29452220
       5704.0840      0.28758660
       5705.3562      0.28352680
       5706.6283      0.28051900
       5707.9005      0.27161610
       5709.1727      0.26866090
       5710.4450      0.25841520
       5711.7171      0.25659400
       5712.9893      0.27247260
       5714.2615      0.26182230
       5715.5336      0.24482310
       5716.8059      0.25186600
       5718.0781      0.24758170
       5719.3503      0.23879880
       5720.6224      0.24705660
       5721.8946      0.22895390
       5723.1668      0.23268790
       5724.4390      0.25936220
       5725.7112      0.24638690
       5726.9834      0.24860090
       5728.2555      0.25789090
       5729.5277      0.25476880
       5730.7999      0.25751230
       5732.0722      0.26292930
       5733.3443      0.26793260
       5734.6165      0.26105420
       5735.8887      0.25532840
       5737.1608      0.25062970
       5738.4331      0.25352550
       5739.7053      0.25484390
       5740.9775      0.24474780
       5742.2496      0.24437510
       5743.5218      0.23976100
       5744.7940      0.23709920
       5746.0662      0.23891800
       5747.3384      0.23885020
       5748.6106      0.23122140
       5749.8828      0.22497820
       5751.1549      0.22466420
       5752.4271      0.21258110
       5753.6994      0.21004170
       5754.9715      0.21871120
       5756.2437      0.21575900
       5757.5159      0.21388260
       5758.7881      0.21832630
       5760.0603      0.21966830
       5761.3325      0.22050210
       5762.6047      0.21563700
       5763.8768      0.21267790
       5765.1490      0.20735190
       5766.4212      0.21064170
       5767.6934      0.20602590
       5768.9656      0.19944030
       5770.2378      0.19830800
       5771.5100      0.20116100
       5772.7821      0.20138910
       5774.0543      0.20257690
       5775.3266      0.18862710
       5776.5987      0.19851990
       5777.8709      0.20322340
       5779.1431      0.20343900
       5780.4153      0.18807170
       5781.6875      0.19638890
       5782.9597      0.21263200
       5784.2319      0.19883320
       5785.5040      0.20053970
       5786.7762      0.20411040
       5788.0484      0.19902820
       5789.3207      0.19469670
       5790.5928      0.19483670
       5791.8650      0.19831060
       5793.1372      0.19986530
       5794.4093      0.21683070
       5795.6815      0.20903330
       5796.9538      0.20727040
       5798.2259      0.20711750
       5799.4981      0.20764310
       5800.7703      0.21835160
       5802.0425      0.21077240
       5803.3147      0.21273410
       5804.5869      0.21385470
       5805.8591      0.21713830
       5807.1312      0.20456940
       5808.4034      0.22589130
       5809.6756      0.22731930
       5810.9479      0.22242030
       5812.2200      0.22186230
       5813.4922      0.23467830
       5814.7644      0.23780370
       5816.0365      0.24572430
       5817.3087      0.25258470
       5818.5810      0.25005980
       5819.8532      0.25799300
       5821.1253      0.26818520
       5822.3975      0.25518850
       5823.6697      0.26855600
       5824.9419      0.27683920
       5826.2141      0.27914550
       5827.4863      0.28673230
       5828.7585      0.30269440
       5830.0306      0.31027550
       5831.3028      0.30351070
       5832.5751      0.32509880
       5833.8472      0.33076480
       5835.1194      0.34007910
       5836.3916      0.34713170
       5837.6637      0.36529870
       5838.9359      0.36793080
       5840.2082      0.35929930
       5841.4804      0.37629610
       5842.7525      0.39175350
       5844.0247      0.39700310
       5845.2969      0.39787110
       5846.5691      0.40088420
       5847.8413      0.41676580
       5849.1135      0.41697830
       5850.3857      0.42633270
       5851.6578      0.44251060
       5852.9300      0.44916620
       5854.2023      0.45175610
       5855.4744      0.43908280
       5856.7466      0.45896770
       5858.0188      0.47580060
       5859.2910      0.47454130
       5860.5631      0.48047260
       5861.8354      0.48224090
       5863.1076      0.47822000
       5864.3797      0.48228970
       5865.6519      0.48463400
       5866.9241      0.50326310
       5868.1963      0.51780490
       5869.4685      0.51969980
       5870.7407      0.52927340
       5872.0129      0.52833600
       5873.2850      0.53644500
       5874.5572      0.54605410
       5875.8295      0.54832710
       5877.1016      0.54664200
       5878.3738      0.54354560
       5879.6460      0.57376970
       5880.9182      0.56262920
       5882.1903      0.57915170
       5883.4626      0.58073720
       5884.7348      0.58202970
       5886.0069      0.56887260
       5887.2791      0.56124460
       5888.5513      0.56260010
       5889.8236      0.55661700
       5891.0957      0.57004610
       5892.3679      0.59820640
       5893.6401      0.59380880
       5894.9122      0.58709660
       5896.1844      0.59296250
       5897.4567      0.60366310
       5898.7289      0.61721190
       5900.0010      0.61950590
       5901.2732      0.62855370
       5902.5454      0.62466270
       5903.8175      0.63539760
       5905.0898      0.63865960
       5906.3620      0.62947890
       5907.6341      0.62251730
       5908.9063      0.62081520
       5910.1785      0.64228490
       5911.4508      0.62689870
       5912.7229      0.63367550
       5913.9951      0.63895310
       5915.2673      0.61618780
       5916.5394      0.62364840
       5917.8116      0.59987690
       5919.0839      0.59174350
       5920.3561      0.60838120
       5921.6282      0.61505760
       5922.9004      0.60865810
       5924.1726      0.61101370
       5925.4447      0.62611780
       5926.7170      0.61522050
       5927.9892      0.62439910
       5929.2614      0.63597670
       5930.5335      0.62846020
       5931.8057      0.62685100
       5933.0780      0.61889700
       5934.3501      0.61993090
       5935.6223      0.61628340
       5936.8945      0.61242920
       5938.1667      0.61781690
       5939.4388      0.61837880
       5940.7111      0.61840600
       5941.9833      0.61856070
       5943.2554      0.61354400
       5944.5276      0.61208000
       5945.7998      0.61707160
       5947.0719      0.61112730
       5948.3442      0.59488240
       5949.6164      0.59390110
       5950.8886      0.60077290
       5952.1607      0.61735830
       5953.4329      0.60521110
       5954.7052      0.58939540
       5955.9773      0.60436800
       5957.2495      0.61267290
       5958.5217      0.60274390
       5959.7939      0.58834260
       5961.0660      0.59575490
       5962.3383      0.59327690
       5963.6105      0.57869280
       5964.8826      0.56368950
       5966.1548      0.57970690
       5967.4270      0.58527750
       5968.6992      0.57814840
       5969.9714      0.57958940
       5971.2436      0.58498590
       5972.5158      0.58783410
       5973.7879      0.58237950
       5975.0601      0.57901230
       5976.3324      0.56440160
       5977.6045      0.56051930
       5978.8767      0.56375510
       5980.1489      0.56527180
       5981.4211      0.56333470
       5982.6932      0.57388410
       5983.9655      0.58705420
       5985.2377      0.57819900
       5986.5098      0.57380880
       5987.7820      0.56977050
       5989.0542      0.56226110
       5990.3264      0.56970790
       5991.5986      0.56814240
       5992.8708      0.55966580
       5994.1430      0.57072930
       5995.4151      0.57139280
       5996.6873      0.56725560
       5997.9596      0.55824540
       5999.2318      0.55966080
       6000.5039      0.55909280
       6001.7761      0.55874680
       6003.0483      0.55482180
       6004.3204      0.53105590
       6005.5927      0.53809650
       6006.8649      0.53309200
       6008.1371      0.51232510
       6009.4092      0.53054460
       6010.6814      0.54334660
       6011.9536      0.53022720
       6013.2258      0.51992040
       6014.4980      0.52111820
       6015.7702      0.51750700
       6017.0423      0.51628370
       6018.3145      0.51844320
       6019.5868      0.50145320
       6020.8590      0.50443350
       6022.1311      0.50434790
       6023.4033      0.49634660
       6024.6755      0.50207010
       6025.9476      0.50003000
       6027.2199      0.49834940
       6028.4921      0.50040350
       6029.7643      0.50505390
       6031.0364      0.49310280
       6032.3086      0.48980610
       6033.5808      0.49652910
       6034.8530      0.50174900
       6036.1252      0.48685550
       6037.3974      0.48376280
       6038.6696      0.48167330
       6039.9417      0.46571180
       6041.2140      0.46794220
       6042.4862      0.46983510
       6043.7583      0.47590720
       6045.0305      0.47048590
       6046.3027      0.47017840
       6047.5748      0.46355450
       6048.8471      0.46029280
       6050.1193      0.46107720
       6051.3915      0.45628310
       6052.6636      0.45091590
       6053.9358      0.45454920
       6055.2080      0.45863870
       6056.4802      0.45708140
       6057.7524      0.44432240
       6059.0246      0.43977190
       6060.2968      0.45448840
       6061.5689      0.43878370
       6062.8412      0.44309950
       6064.1134      0.44468990
       6065.3855      0.42268470
       6066.6577      0.42194260
       6067.9299      0.42397700
       6069.2021      0.42323180
       6070.4743      0.42647570
       6071.7465      0.43172800
       6073.0187      0.41526370
       6074.2908      0.40206990
       6075.5630      0.40317110
       6076.8352      0.39491750
       6078.1075      0.39974220
       6079.3796      0.40654120
       6080.6518      0.41784020
       6081.9240      0.41826260
       6083.1961      0.40187440
       6084.4684      0.39808440
       6085.7406      0.40964560
       6087.0127      0.39848990
       6088.2849      0.40441030
       6089.5571      0.41314180
       6090.8293      0.40857740
       6092.1015      0.41474420
       6093.3737      0.42083290
       6094.6459      0.40815270
       6095.9180      0.40544750
       6097.1902      0.39445180
       6098.4624      0.39864580
       6099.7347      0.39964390
       6101.0068      0.41077210
       6102.2790      0.39219740
       6103.5512      0.39324140
       6104.8233      0.41109780
       6106.0956      0.40299190
       6107.3678      0.42400490
       6108.6400      0.40993510
       6109.9121      0.41211770
       6111.1843      0.41963490
       6112.4565      0.42042400
       6113.7287      0.42446120
       6115.0009      0.42569390
       6116.2731      0.41530130
       6117.5452      0.41038560
       6118.8174      0.41604840
       6120.0896      0.43219290
       6121.3619      0.43436270
       6122.6340      0.42913470
       6123.9062      0.42943230
       6125.1784      0.43438580
       6126.4505      0.43996330
       6127.7228      0.43060020
       6128.9950      0.42798450
       6130.2672      0.43799820
       6131.5393      0.43051250
       6132.8115      0.42645450
       6134.0837      0.43764680
       6135.3559      0.43085890
       6136.6281      0.42835350
       6137.9003      0.43540470
       6139.1725      0.43131880
       6140.4446      0.43859070
       6141.7168      0.44261040
       6142.9891      0.43170250
       6144.2612      0.42927500
       6145.5334      0.43239270
       6146.8056      0.44109900
       6148.0778      0.43989250
       6149.3500      0.42802500
       6150.6222      0.42521300
       6151.8944      0.42864760
       6153.1665      0.43211020
       6154.4387      0.43057970
       6155.7109      0.43210420
       6156.9831      0.43491630
       6158.2553      0.43896410
       6159.5275      0.43039120
       6160.7997      0.42197280
       6162.0718      0.42701900
       6163.3440      0.43474560
       6164.6163      0.42814250
       6165.8884      0.42050780
       6167.1606      0.42586640
       6168.4328      0.42929920
       6169.7050      0.43219800
       6170.9772      0.41769350
       6172.2494      0.42459530
       6173.5216      0.43525140
       6174.7937      0.42877960
       6176.0659      0.42986680
       6177.3381      0.43317300
       6178.6104      0.44186720
       6179.8825      0.44543860
       6181.1547      0.44493810
       6182.4269      0.44540210
       6183.6990      0.45537860
       6184.9712      0.46950700
       6186.2435      0.47424230
       6187.5156      0.47870510
       6188.7878      0.48339380
       6190.0600      0.48079800
       6191.3322      0.49174040
       6192.6044      0.49997080
       6193.8766      0.51178420
       6195.1488      0.52175220
       6196.4209      0.52204690
       6197.6931      0.53412360
       6198.9653      0.52434060
       6200.2376      0.52332490
       6201.5097      0.54742310
       6202.7819      0.55989900
       6204.0541      0.56628650
       6205.3262      0.57393620
       6206.5984      0.57828420
       6207.8707      0.59039620
       6209.1429      0.61404530
       6210.4150      0.62524100
       6211.6872      0.63676730
       6212.9594      0.64290200
       6214.2316      0.64933540
       6215.5038      0.66924570
       6216.7760      0.68235410
       6218.0482      0.70421890
       6219.3203      0.71265900
       6220.5925      0.72134290
       6221.8648      0.74192390
       6223.1369      0.76083290
       6224.4091      0.76713330
       6225.6813      0.77477030
       6226.9534      0.81770310
       6228.2256      0.85174500
       6229.4979      0.86327450
       6230.7701      0.89974540
       6232.0422      0.91244390
       6233.3144      0.93054070
       6234.5866      0.97603600
       6235.8588      0.97978520
       6237.1310      0.97315930
       6238.4032       1.0032820
       6239.6754       1.0140750
       6240.9475       1.0320360
       6242.2197       1.0481580
       6243.4920       1.0477520
       6244.7641       1.0368210
       6246.0363       1.0400130
       6247.3085       1.0544000
       6248.5807       1.0495580
       6249.8528       1.0547670
       6251.1251       1.0547430
       6252.3973       1.0563180
       6253.6694       1.0533560
       6254.9416       1.0506490
       6256.2138       1.0977500
       6257.4861       1.1061280
       6258.7582       1.1114870
       6260.0304       1.1039990
       6261.3026       1.1011820
       6262.5747       1.1066760
       6263.8469       1.1027330
       6265.1192       1.1049680
       6266.3913       1.0893830
       6267.6635       1.0862270
       6268.9357       1.0755200
       6270.2079       1.0796310
       6271.4800       1.0959910
       6272.7523       1.1053350
       6274.0245       1.1329450
       6275.2966       1.1385840
       6276.5688       1.0986910
       6277.8410       1.1156980
       6279.1133       1.1268780
       6280.3854       1.1381490
       6281.6576       1.1645910
       6282.9298       1.1641340
       6284.2019       1.1565940
       6285.4741       1.1807430
       6286.7464       1.1780450
       6288.0186       1.1583990
       6289.2907       1.1610620
       6290.5629       1.1501710
       6291.8351       1.1794850
       6293.1072       1.1933590
       6294.3795       1.1992610
       6295.6517       1.1929900
       6296.9238       1.1820300
       6298.1960       1.1837890
       6299.4682       1.1929410
       6300.7405       1.2050470
       6302.0126       1.2047010
       6303.2848       1.2009640
       6304.5570       1.2293250
       6305.8291       1.2153620
       6307.1013       1.1923510
       6308.3736       1.1880730
       6309.6458       1.1813400
       6310.9179       1.1453590
       6312.1901       1.1574700
       6313.4623       1.1587920
       6314.7344       1.1293250
       6316.0067       1.1445160
       6317.2789       1.1480790
       6318.5511       1.1715780
       6319.8232       1.1659550
       6321.0954       1.1414300
       6322.3677       1.1362950
       6323.6398       1.1603660
       6324.9120       1.1407750
       6326.1842       1.1140620
       6327.4564       1.0988630
       6328.7285       1.1108690
       6330.0008       1.0984010
       6331.2730       1.0839900
       6332.5451       1.0620070
       6333.8173       1.0568360
       6335.0895       1.0698340
       6336.3616       1.0687990
       6337.6339       1.0627180
       6338.9061       1.0287850
       6340.1783       1.0523950
       6341.4504       1.0575850
       6342.7226       1.0408720
       6343.9949       1.0371690
       6345.2670       1.0430430
       6346.5392       1.0290380
       6347.8114       1.0238290
       6349.0836       1.0196790
       6350.3557       1.0272130
       6351.6280       1.0061410
       6352.9002      0.99994060
       6354.1723      0.99986390
       6355.4445      0.99536060
       6356.7167      0.99780290
       6357.9889      0.97799660
       6359.2611      0.97683460
       6360.5333      0.97311170
       6361.8055      0.97656420
       6363.0776      0.99351690
       6364.3498      0.95376760
       6365.6221      0.93327420
       6366.8942      0.95526500
       6368.1664      0.96146750
       6369.4386      0.95280360
       6370.7108      0.94466830
       6371.9829      0.95510540
       6373.2552      0.93568090
       6374.5274      0.92391430
       6375.7995      0.92256690
       6377.0717      0.88407300
       6378.3439      0.88202180
       6379.6161      0.88512340
       6380.8883      0.88131280
       6382.1605      0.87069950
       6383.4327      0.84826320
       6384.7048      0.84830100
       6385.9770      0.84466350
       6387.2493      0.82836780
       6388.5215      0.81601230
       6389.7936      0.80370570
       6391.0658      0.79193010
       6392.3380      0.80093900
       6393.6101      0.80277220
       6394.8824      0.79310680
       6396.1546      0.79180680
       6397.4268      0.78939540
       6398.6989      0.79320510
       6399.9711      0.79507590
       6401.2434      0.79446060
       6402.5155      0.79167900
       6403.7877      0.77796060
       6405.0599      0.77251650
       6406.3320      0.77002990
       6407.6042      0.76680600
       6408.8765      0.77135370
       6410.1487      0.75722060
       6411.4208      0.74917690
       6412.6930      0.73720450
       6413.9652      0.72157720
       6415.2373      0.73354610
       6416.5096      0.72876610
       6417.7818      0.71842410
       6419.0540      0.70984520
       6420.3261      0.70478220
       6421.5983      0.70698560
       6422.8706      0.71043010
       6424.1427      0.71475470
       6425.4149      0.71545010
       6426.6871      0.70558270
       6427.9593      0.70696360
       6429.2314      0.71329800
       6430.5037      0.69768030
       6431.7759      0.70428220
       6433.0480      0.71604170
       6434.3202      0.70797950
       6435.5924      0.70145360
       6436.8645      0.69073370
       6438.1368      0.69032690
       6439.4090      0.70071080
       6440.6812      0.69363990
       6441.9533      0.68056560
       6443.2255      0.67717470
       6444.4978      0.69132120
       6445.7699      0.68411890
       6447.0421      0.67140880
       6448.3143      0.67932780
       6449.5865      0.68441290
       6450.8586      0.68547160
       6452.1309      0.67201540
       6453.4031      0.67121780
       6454.6752      0.67055340
       6455.9474      0.66269600
       6457.2196      0.66462810
       6458.4918      0.65212870
       6459.7640      0.65084110
       6461.0362      0.66654990
       6462.3084      0.67529000
       6463.5805      0.67077970
       6464.8527      0.66796440
       6466.1250      0.67958090
       6467.3972      0.67834660
       6468.6693      0.67223820
       6469.9415      0.66411120
       6471.2137      0.66560480
       6472.4858      0.66618110
       6473.7581      0.66298820
       6475.0303      0.64486840
       6476.3024      0.63531750
       6477.5746      0.65352330
       6478.8468      0.64984330
       6480.1190      0.64316360
       6481.3912      0.63534380
       6482.6634      0.62484520
       6483.9356      0.62494040
       6485.2077      0.63553750
       6486.4799      0.63794460
       6487.7522      0.64070110
       6489.0244      0.64491600
       6490.2965      0.63478820
       6491.5687      0.63994720
       6492.8409      0.63212530
       6494.1130      0.62928620
       6495.3853      0.63404050
       6496.6575      0.64360250
       6497.9297      0.64314920
       6499.2018      0.64142870
       6500.4740      0.63926410
       6501.7462      0.64055920
       6503.0184      0.63244030
       6504.2906      0.64703710
       6505.5628      0.64325530
       6506.8349      0.63502850
       6508.1071      0.64676620
       6509.3794      0.64080790
       6510.6516      0.62067550
       6511.9237      0.61884740
       6513.1959      0.62845190
       6514.4681      0.61849490
       6515.7402      0.61206400
       6517.0125      0.60650690
       6518.2847      0.59940420
       6519.5569      0.60172030
       6520.8290      0.60095610
       6522.1012      0.60110030
       6523.3734      0.60660090
       6524.6456      0.59786590
       6525.9178      0.57992400
       6527.1900      0.58961660
       6528.4622      0.59847520
       6529.7343      0.58965140
       6531.0066      0.58367860
       6532.2788      0.57824120
       6533.5509      0.57031880
       6534.8231      0.56542910
       6536.0953      0.55354770
       6537.3675      0.54434140
       6538.6397      0.54449470
       6539.9119      0.55651060
       6541.1841      0.55096080
       6542.4562      0.54721370
       6543.7284      0.54628120
       6545.0006      0.53607790
       6546.2728      0.54131740
       6547.5450      0.53867120
       6548.8172      0.53228590
       6550.0894      0.51938930
       6551.3615      0.53061550
       6552.6338      0.53568320
       6553.9060      0.53247320
       6555.1781      0.52342260
       6556.4503      0.53132080
       6557.7225      0.53306370
       6558.9947      0.54275380
       6560.2669      0.54223540
       6561.5391      0.52850160
       6562.8113      0.52201870
       6564.0834      0.52251230
       6565.3556      0.53611850
       6566.6278      0.54826730
       6567.9001      0.54828510
       6569.1722      0.53515950
       6570.4444      0.53755090
       6571.7166      0.52596270
       6572.9887      0.53311210
       6574.2610      0.52040270
       6575.5332      0.53224330
       6576.8054      0.54244590
       6578.0775      0.53673920
       6579.3497      0.53575760
       6580.6219      0.54054810
       6581.8941      0.53434080
       6583.1663      0.54062470
       6584.4385      0.52904500
       6585.7106      0.53280430
       6586.9828      0.53616840
       6588.2550      0.53632510
       6589.5273      0.53562540
       6590.7994      0.53985220
       6592.0716      0.56553080
       6593.3438      0.59161380
       6594.6159      0.58464310
       6595.8882      0.53879820
       6597.1604      0.51875610
       6598.4326      0.51903760
       6599.7047      0.51151180
       6600.9769      0.51200590
       6602.2491      0.49482750
       6603.5213      0.50427080
       6604.7935      0.51614930
       6606.0657      0.50508140
       6607.3379      0.50361580
       6608.6100      0.50000940
       6609.8822      0.50060320
       6611.1545      0.50342810
       6612.4266      0.50190590
       6613.6988      0.50366350
       6614.9710      0.50383480
       6616.2431      0.49808160
       6617.5154      0.49767000
       6618.7876      0.49691110
       6620.0598      0.49118010
       6621.3319      0.48814690
       6622.6041      0.48847590
       6623.8763      0.48413380
       6625.1485      0.47422870
       6626.4207      0.46513080
       6627.6929      0.47300270
       6628.9651      0.48857670
       6630.2372      0.47758330
       6631.5094      0.46977340
       6632.7817      0.47132230
       6634.0538      0.47331250
       6635.3260      0.46878490
       6636.5982      0.46033320
       6637.8704      0.44941820
       6639.1426      0.45138210
       6640.4148      0.44195860
       6641.6870      0.43122290
       6642.9591      0.43625230
       6644.2313      0.43190200
       6645.5035      0.44105860
       6646.7758      0.43596430
       6648.0479      0.43116960
       6649.3201      0.42679700
       6650.5923      0.41394590
       6651.8644      0.42252850
       6653.1366      0.42270680
       6654.4089      0.41857630
       6655.6810      0.41706970
       6656.9532      0.41927380
       6658.2254      0.40685250
       6659.4976      0.40489610
       6660.7698      0.41709570
       6662.0420      0.40067390
       6663.3142      0.40911350
       6664.5863      0.40713190
       6665.8585      0.40659280
       6667.1307      0.40744500
       6668.4030      0.39986270
       6669.6751      0.40079920
       6670.9473      0.40790770
       6672.2195      0.41048830
       6673.4916      0.38874610
       6674.7638      0.39963750
       6676.0361      0.39844130
       6677.3083      0.38932480
       6678.5804      0.39992610
       6679.8526      0.40235300
       6681.1248      0.39830450
       6682.3970      0.40127620
       6683.6692      0.38931510
       6684.9414      0.38866910
       6686.2135      0.39489850
       6687.4857      0.39029730
       6688.7579      0.37501290
       6690.0302      0.38464320
       6691.3023      0.38482810
       6692.5745      0.38061600
       6693.8467      0.37221420
       6695.1188      0.36304670
       6696.3910      0.37517250
       6697.6633      0.38167470
       6698.9355      0.37286180
       6700.2076      0.36692900
       6701.4798      0.37395730
       6702.7520      0.36522480
       6704.0242      0.35769270
       6705.2964      0.35382030
       6706.5686      0.34813160
       6707.8408      0.35732650
       6709.1129      0.35631880
       6710.3851      0.35427940
       6711.6574      0.34875540
       6712.9295      0.34031790
       6714.2017      0.34513440
       6715.4739      0.34526970
       6716.7461      0.34193550
       6718.0182      0.34297070
       6719.2905      0.34774470
       6720.5627      0.33239890
       6721.8348      0.31973550
       6723.1070      0.32880670
       6724.3792      0.32849890
       6725.6514      0.32811730
       6726.9236      0.33368800
       6728.1958      0.33272440
       6729.4680      0.32330770
       6730.7401      0.31728370
       6732.0123      0.31632590
       6733.2846      0.31393730
       6734.5567      0.31347210
       6735.8289      0.31177520
       6737.1011      0.30880510
       6738.3733      0.30969400
       6739.6454      0.29840390
       6740.9177      0.30966140
       6742.1899      0.31792890
       6743.4620      0.30771010
       6744.7342      0.29939150
       6746.0064      0.29313220
       6747.2787      0.30265700
       6748.5508      0.29987470
       6749.8230      0.28616090
       6751.0952      0.28601340
       6752.3673      0.28046160
       6753.6395      0.27625320
       6754.9118      0.29099970
       6756.1839      0.28301350
       6757.4561      0.27058270
       6758.7283      0.27148860
       6760.0005      0.27793390
       6761.2726      0.27788330
       6762.5449      0.28393210
       6763.8171      0.27797690
       6765.0892      0.27467140
       6766.3614      0.27331880
       6767.6336      0.27797000
       6768.9059      0.27332580
       6770.1780      0.27675430
       6771.4502      0.27130730
       6772.7224      0.27440380
       6773.9945      0.26780340
       6775.2667      0.26634370
       6776.5390      0.27464460
       6777.8112      0.27794980
       6779.0833      0.27815720
       6780.3555      0.27189910
       6781.6277      0.27245260
       6782.8998      0.28053420
       6784.1721      0.28143440
       6785.4443      0.27459050
       6786.7165      0.27612900
       6787.9886      0.28339740
       6789.2608      0.28068690
       6790.5331      0.27658050
       6791.8052      0.28290920
       6793.0774      0.27825170
       6794.3496      0.27201140
       6795.6217      0.28282550
       6796.8939      0.27783450
       6798.1662      0.27677350
       6799.4384      0.28355920
       6800.7105      0.28469790
       6801.9827      0.27995870
       6803.2549      0.28249660
       6804.5270      0.28484520
       6805.7993      0.28212470
       6807.0715      0.28819050
       6808.3437      0.28556520
       6809.6158      0.27845120
       6810.8880      0.27916260
       6812.1603      0.28208580
       6813.4324      0.28126350
       6814.7046      0.27675750
       6815.9768      0.27079470
       6817.2490      0.28095410
       6818.5211      0.28654450
       6819.7934      0.27927090
       6821.0656      0.27842030
       6822.3377      0.27852380
       6823.6099      0.28834270
       6824.8821      0.28454250
       6826.1542      0.28082240
       6827.4265      0.28242510
       6828.6987      0.26859350
       6829.9709      0.27766960
       6831.2430      0.28801430
       6832.5152      0.27593760
       6833.7875      0.27803530
       6835.0596      0.27117100
       6836.3318      0.27764620
       6837.6040      0.28523940
       6838.8762      0.28456230
       6840.1483      0.28063650
       6841.4206      0.28202390
       6842.6928      0.28372860
       6843.9649      0.28437670
       6845.2371      0.28134240
       6846.5093      0.28030040
       6847.7815      0.27253980
       6849.0537      0.27244050
       6850.3259      0.27525620
       6851.5981      0.26815290
       6852.8702      0.27337680
       6854.1424      0.27561500
       6855.4147      0.27267550
       6856.6869      0.26784960
       6857.9590      0.26562120
       6859.2312      0.26359320
       6860.5034      0.25633820
       6861.7755      0.25299160
       6863.0478      0.25564480
       6864.3200      0.25660660
       6865.5921      0.25468680
       6866.8643      0.24786750
       6868.1365      0.24129240
       6869.4087      0.25070230
       6870.6809      0.24289860
       6871.9531      0.25131860
       6873.2253      0.25973960
       6874.4974      0.24765510
       6875.7696      0.23709190
       6877.0419      0.24624090
       6878.3141      0.23518140
       6879.5862      0.23656060
       6880.8584      0.24194850
       6882.1306      0.24159570
       6883.4027      0.24067080
       6884.6750      0.23270120
       6885.9472      0.23735240
       6887.2194      0.24388580
       6888.4915      0.24849590
       6889.7637      0.24688190
       6891.0359      0.23498900
       6892.3081      0.22988130
       6893.5803      0.23360170
       6894.8525      0.23084840
       6896.1247      0.22785870
       6897.3968      0.21990570
       6898.6691      0.21999750
       6899.9413      0.23774290
       6901.2134      0.23280770
       6902.4856      0.23975640
       6903.7578      0.23916230
       6905.0299      0.22689630
       6906.3022      0.22845350
       6907.5744      0.23953720
       6908.8466      0.23484400
       6910.1187      0.22141770
       6911.3909      0.23560430
       6912.6631      0.23256890
       6913.9353      0.22015780
       6915.2075      0.22404700
       6916.4797      0.22927510
       6917.7519      0.22606530
       6919.0240      0.22574390
       6920.2963      0.22609970
       6921.5685      0.22011140
       6922.8406      0.22826250
       6924.1128      0.21828730
       6925.3850      0.21670510
       6926.6572      0.23176430
       6927.9294      0.23042660
       6929.2016      0.22837370
       6930.4738      0.21768030
       6931.7459      0.21360020
       6933.0181      0.22085010
       6934.2903      0.22724700
       6935.5625      0.23448970
       6936.8347      0.22813660
       6938.1069      0.22821270
       6939.3791      0.23366420
       6940.6512      0.23570310
       6941.9235      0.23864120
       6943.1957      0.23503840
       6944.4678      0.24049320
       6945.7400      0.24803850
       6947.0122      0.23785060
       6948.2844      0.23792340
       6949.5566      0.24530980
       6950.8288      0.24965580
       6952.1010      0.24435270
       6953.3731      0.25033420
       6954.6453      0.24886130
       6955.9175      0.25409170
       6957.1898      0.25089800
       6958.4619      0.24886780
       6959.7341      0.25019680
       6961.0063      0.25989820
       6962.2784      0.26494960
       6963.5507      0.27056670
       6964.8229      0.25899160
       6966.0951      0.25999990
       6967.3672      0.27531220
       6968.6394      0.27385350
       6969.9116      0.26854520
       6971.1838      0.27451420
       6972.4560      0.27714070
       6973.7282      0.27693080
       6975.0003      0.28881510
       6976.2725      0.29614210
       6977.5447      0.27688860
       6978.8170      0.28139570
       6980.0891      0.28791180
       6981.3613      0.28717650
       6982.6335      0.29082400
       6983.9056      0.29162600
       6985.1779      0.28921810
       6986.4501      0.28749640
       6987.7223      0.29095370
       6988.9944      0.29627340
       6990.2666      0.29879410
       6991.5388      0.29683840
       6992.8110      0.29627180
       6994.0832      0.29838870
       6995.3554      0.30672080
       6996.6276      0.31261270
       6997.8997      0.31044150
       6999.1719      0.31148990
       7000.4442      0.30976600
       7001.7163      0.31469040
       7002.9885      0.31603870
       7004.2607      0.31151630
       7005.5328      0.32098400
       7006.8051      0.32316230
       7008.0773      0.32615670
       7009.3495      0.32782790
       7010.6216      0.32261410
       7011.8938      0.31934080
       7013.1660      0.32081670
       7014.4382      0.31900790
       7015.7104      0.31517350
       7016.9826      0.32623110
       7018.2548      0.33343560
       7019.5269      0.33421100
       7020.7991      0.32482200
       7022.0714      0.33038680
       7023.3435      0.33333880
       7024.6157      0.33464020
       7025.8879      0.32629430
       7027.1601      0.32430220
       7028.4323      0.33241920
       7029.7045      0.33012930
       7030.9767      0.33370360
       7032.2488      0.32480200
       7033.5210      0.32403710
       7034.7932      0.32832480
       7036.0655      0.32418510
       7037.3376      0.32252700
       7038.6098      0.32469900
       7039.8820      0.32265090
       7041.1541      0.32679920
       7042.4263      0.33177760
       7043.6986      0.32771530
       7044.9707      0.32393230
       7046.2429      0.32291560
       7047.5151      0.32390400
       7048.7873      0.32354770
       7050.0595      0.32101590
       7051.3317      0.32335280
       7052.6039      0.32360010
       7053.8760      0.31935070
       7055.1482      0.31615260
       7056.4204      0.31687700
       7057.6927      0.32579560
       7058.9648      0.32508060
       7060.2370      0.32223180
       7061.5092      0.32583450
       7062.7813      0.31904160
       7064.0535      0.31659210
       7065.3258      0.32012760
       7066.5980      0.32587050
       7067.8701      0.31883430
       7069.1423      0.32412090
       7070.4145      0.32767670
       7071.6867      0.32637260
       7072.9589      0.33719060
       7074.2311      0.33201250
       7075.5032      0.33811020
       7076.7754      0.33483850
       7078.0476      0.32664590
       7079.3199      0.31699370
       7080.5920      0.32460490
       7081.8642      0.33507360
       7083.1364      0.33063410
       7084.4085      0.33166560
       7085.6807      0.33844830
       7086.9530      0.33258470
       7088.2252      0.33599540
       7089.4973      0.33731120
       7090.7695      0.33461190
       7092.0417      0.33108400
       7093.3139      0.33117380
       7094.5861      0.33319120
       7095.8583      0.32681990
       7097.1305      0.34061250
       7098.4026      0.33296520
       7099.6748      0.33089210
       7100.9471      0.33361930
       7102.2192      0.33397530
       7103.4914      0.32062020
       7104.7636      0.33084150
       7106.0358      0.33472820
       7107.3079      0.32587620
       7108.5802      0.33262270
       7109.8524      0.34024970
       7111.1245      0.34292370
       7112.3967      0.34385980
       7113.6689      0.33604270
       7114.9411      0.33019040
       7116.2133      0.33483310
       7117.4855      0.33597990
       7118.7577      0.33058030
       7120.0298      0.32917270
       7121.3020      0.33150510
       7122.5743      0.33654330
       7123.8464      0.33220920
       7125.1186      0.31931530
       7126.3908      0.32430450
       7127.6630      0.32621180
       7128.9351      0.32357150
       7130.2074      0.32830580
       7131.4796      0.32390380
       7132.7517      0.32652160
       7134.0239      0.32883900
       7135.2961      0.32701170
       7136.5684      0.33025680
       7137.8405      0.33105760
       7139.1127      0.32818450
       7140.3849      0.32291720
       7141.6570      0.32248950
       7142.9292      0.33618770
       7144.2015      0.33414670
       7145.4736      0.33622470
       7146.7458      0.33754130
       7148.0180      0.32346490
       7149.2902      0.33167120
       7150.5623      0.33251810
       7151.8346      0.33000360
       7153.1068      0.34790040
       7154.3789      0.34537500
       7155.6511      0.34044800
       7156.9233      0.33399370
       7158.1956      0.34447530
       7159.4677      0.34870770
       7160.7399      0.34464110
       7162.0121      0.33792450
       7163.2842      0.34135940
       7164.5564      0.34912680
       7165.8287      0.34518230
       7167.1009      0.35328340
       7168.3730      0.35643270
       7169.6452      0.35254250
       7170.9174      0.35311690
       7172.1895      0.34591500
       7173.4618      0.35311340
       7174.7340      0.36075050
       7176.0062      0.35702390
       7177.2783      0.36215300
       7178.5505      0.37545780
       7179.8228      0.38274140
       7181.0949      0.36495980
       7182.3671      0.35500360
       7183.6393      0.37384280
       7184.9114      0.37738660
       7186.1836      0.36153370
       7187.4559      0.35648200
       7188.7281      0.38770080
       7190.0002      0.38458770
       7191.2724      0.37368340
       7192.5446      0.38074230
       7193.8167      0.39528180
       7195.0890      0.38366110
       7196.3612      0.37898970
       7197.6334      0.38872910
       7198.9055      0.40160300
       7200.1777      0.40084170
       7201.4500      0.39473840
       7202.7221      0.41217330
       7203.9943      0.40855190
       7205.2665      0.41906630
       7206.5387      0.41587550
       7207.8108      0.40903640
       7209.0831      0.42317020
       7210.3553      0.43757560
       7211.6274      0.42419350
       7212.8996      0.42687630
       7214.1718      0.44295370
       7215.4440      0.44020450
       7216.7162      0.42616810
       7217.9884      0.42766440
       7219.2606      0.43892550
       7220.5327      0.43279440
       7221.8049      0.42635520
       7223.0772      0.41362630
       7224.3493      0.41455840
       7225.6215      0.43502800
       7226.8937      0.44223250
       7228.1659      0.43325590
       7229.4380      0.43965260
       7230.7103      0.45231370
       7231.9825      0.43883260
       7233.2546      0.41503060
       7234.5268      0.40848100
       7235.7990      0.41487490
       7237.0712      0.43985210
       7238.3434      0.46494670
       7239.6156      0.45254800
       7240.8878      0.42318630
       7242.1599      0.43126600
       7243.4321      0.44922770
       7244.7044      0.45492200
       7245.9766      0.46359300
       7247.2487      0.46681760
       7248.5209      0.47938510
       7249.7931      0.48885830
       7251.0652      0.47960860
       7252.3375      0.46119090
       7253.6097      0.45599320
       7254.8818      0.46219390
       7256.1540      0.48481490
       7257.4262      0.48787760
       7258.6984      0.48840920
       7259.9706      0.49656230
       7261.2428      0.50136330
       7262.5150      0.49990350
       7263.7871      0.47811640
       7265.0593      0.45451050
       7266.3316      0.46390240
       7267.6038      0.49614210
       7268.8759      0.50447400
       7270.1481      0.49211720
       7271.4203      0.49141390
       7272.6924      0.49622190
       7273.9647      0.49365600
       7275.2369      0.48635420
       7276.5091      0.48302080
       7277.7812      0.47685920
       7279.0534      0.49050100
       7280.3256      0.51557650
       7281.5978      0.51227360
       7282.8700      0.52384380
       7284.1422      0.54776520
       7285.4144      0.55656530
       7286.6865      0.56494310
       7287.9588      0.55940610
       7289.2310      0.54750920
       7290.5031      0.53932870
       7291.7753      0.54807800
       7293.0475      0.55212810
       7294.3196      0.56037330
       7295.5919      0.58626640
       7296.8641      0.60373390
       7298.1363      0.62208170
       7299.4084      0.61985190
       7300.6806      0.60626390
       7301.9528      0.60780660
       7303.2250      0.59080200
       7304.4972      0.58711760
       7305.7694      0.62382410
       7307.0416      0.62963800
       7308.3137      0.61906550
       7309.5860      0.61188590
       7310.8582      0.61751560
       7312.1303      0.59897090
       7313.4025      0.60570730
       7314.6747      0.62509470
       7315.9469      0.62973090
       7317.2191      0.63011730
       7318.4913      0.62021160
       7319.7635      0.62390580
       7321.0356      0.64963000
       7322.3078      0.65597590
       7323.5800      0.64033870
       7324.8522      0.64239100
       7326.1244      0.65064130
       7327.3966      0.62631460
       7328.6688      0.63022980
       7329.9409      0.64722800
       7331.2132      0.64164950
       7332.4854      0.63221120
       7333.7575      0.62110690
       7335.0297      0.62820180
       7336.3019      0.63738020
       7337.5741      0.63363610
       7338.8463      0.64391280
       7340.1185      0.64586570
       7341.3907      0.63521830
       7342.6628      0.63030430
       7343.9350      0.62437690
       7345.2072      0.62171380
       7346.4795      0.62010200
       7347.7516      0.62349490
       7349.0238      0.61802060
       7350.2960      0.61026590
       7351.5681      0.62127420
       7352.8404      0.61724100
       7354.1126      0.61208220
       7355.3848      0.61274200
       7356.6569      0.61476390
       7357.9291      0.60625410
       7359.2013      0.60467910
       7360.4735      0.60361330
       7361.7457      0.59469330
       7363.0179      0.58663400
       7364.2900      0.58549730
       7365.5622      0.57876200
       7366.8344      0.57157960
       7368.1067      0.58415810
       7369.3788      0.56512890
       7370.6510      0.56687090
       7371.9232      0.56294570
       7373.1953      0.56912930
       7374.4676      0.55592980
       7375.7398      0.54444900
       7377.0120      0.54939640
       7378.2841      0.54113860
       7379.5563      0.54003710
       7380.8285      0.53164760
       7382.1007      0.51531090
       7383.3729      0.51432230
       7384.6451      0.51733720
       7385.9173      0.51905470
       7387.1894      0.51331540
       7388.4616      0.50651050
       7389.7339      0.50508480
       7391.0060      0.49686390
       7392.2782      0.49767120
       7393.5504      0.50034740
       7394.8225      0.49951600
       7396.0948      0.50788960
       7397.3670      0.50097740
       7398.6392      0.49271910
       7399.9113      0.48688180
       7401.1835      0.47768350
       7402.4557      0.47774640
       7403.7279      0.47183400
       7405.0001      0.47735380
       7406.2723      0.48259510
       7407.5445      0.47099110
       7408.8166      0.47178380
       7410.0888      0.47391030
       7411.3611      0.47057320
       7412.6332      0.44652730
       7413.9054      0.45056140
       7415.1776      0.45421810
       7416.4498      0.44631790
       7417.7220      0.44995310
       7418.9942      0.44857640
       7420.2664      0.44041500
       7421.5385      0.43959800
       7422.8107      0.44159550
       7424.0829      0.44617650
       7425.3552      0.44629270
       7426.6273      0.44876760
       7427.8995      0.43765630
       7429.1717      0.44764280
       7430.4438      0.45036100
       7431.7160      0.43990120
       7432.9883      0.43556000
       7434.2604      0.43049430
       7435.5326      0.43122530
       7436.8048      0.42803670
       7438.0770      0.42598890
       7439.3492      0.42201260
       7440.6214      0.41271840
       7441.8936      0.41169560
       7443.1657      0.40438590
       7444.4379      0.40725770
       7445.7101      0.41868120
       7446.9824      0.41230430
       7448.2545      0.40399950
       7449.5267      0.40564970
       7450.7989      0.40847290
       7452.0710      0.40976670
       7453.3432      0.41314870
       7454.6155      0.40451960
       7455.8877      0.40559570
       7457.1598      0.40950700
       7458.4320      0.39328190
       7459.7042      0.38858260
       7460.9764      0.39086980
       7462.2486      0.39172140
       7463.5208      0.38853130
       7464.7929      0.38965120
       7466.0651      0.38496130
       7467.3373      0.38424950
       7468.6096      0.37865050
       7469.8817      0.38313490
       7471.1539      0.38059700
       7472.4261      0.36864100
       7473.6982      0.36078120
       7474.9704      0.35643000
       7476.2427      0.36283770
       7477.5149      0.36571710
       7478.7870      0.36857440
       7480.0592      0.35723100
       7481.3314      0.35520500
       7482.6036      0.35737960
       7483.8758      0.36039200
       7485.1480      0.35173250
       7486.4202      0.34617480
       7487.6923      0.34733140
       7488.9645      0.33677430
       7490.2368      0.34395010
       7491.5089      0.34619760
       7492.7811      0.33766610
       7494.0533      0.33952460
       7495.3255      0.34070580
       7496.5976      0.33053320
       7497.8699      0.33608140
       7499.1421      0.33025800
       7500.4142      0.33197490
       7501.6864      0.32680590
       7502.9586      0.32711400
       7504.2308      0.33172080
       7505.5030      0.32264600
       7506.7752      0.31040710
       7508.0474      0.31613490
       7509.3195      0.30794990
       7510.5917      0.31386770
       7511.8640      0.30991400
       7513.1361      0.30218820
       7514.4083      0.30536080
       7515.6805      0.30700750
       7516.9527      0.31034030
       7518.2248      0.30988000
       7519.4971      0.30741500
       7520.7693      0.29295960
       7522.0414      0.29641300
       7523.3136      0.29242040
       7524.5858      0.28448920
       7525.8581      0.29150480
       7527.1302      0.29419470
       7528.4024      0.29935660
       7529.6746      0.30423160
       7530.9467      0.29746880
       7532.2189      0.29434410
       7533.4912      0.29721690
       7534.7634      0.29052710
       7536.0355      0.28237370
       7537.3077      0.28821100
       7538.5799      0.28883080
       7539.8520      0.27741710
       7541.1243      0.27471640
       7542.3965      0.28112320
       7543.6686      0.28178020
       7544.9408      0.27428200
       7546.2130      0.27311350
       7547.4853      0.26648450
       7548.7574      0.26945390
       7550.0296      0.26280280
       7551.3018      0.26182530
       7552.5739      0.26406160
       7553.8461      0.26697550
       7555.1184      0.27111240
       7556.3906      0.25686560
       7557.6627      0.25875670
       7558.9349      0.26272370
       7560.2071      0.26167240
       7561.4792      0.25416000
       7562.7515      0.26062220
       7564.0237      0.26298060
       7565.2959      0.25296680
       7566.5680      0.25180370
       7567.8402      0.25127960
       7569.1125      0.24790650
       7570.3846      0.24346910
       7571.6568      0.24360890
       7572.9290      0.24211600
       7574.2011      0.23961210
       7575.4733      0.24369120
       7576.7456      0.24583380
       7578.0178      0.24266270
       7579.2899      0.24167850
       7580.5621      0.24061200
       7581.8343      0.23425340
       7583.1064      0.23199450
       7584.3787      0.23580210
       7585.6509      0.24320610
       7586.9231      0.24374630
       7588.1952      0.23527160
       7589.4674      0.23046560
       7590.7397      0.22421770
       7592.0118      0.23172880
       7593.2840      0.23110550
       7594.5562      0.22184770
       7595.8284      0.20357220
       7597.1005      0.21966320
       7598.3728      0.22332600
       7599.6450      0.20976350
       7600.9171      0.19950280
       7602.1893      0.21149110
       7603.4615      0.17627550
       7604.7337      0.17175280
       7606.0059      0.16926070
       7607.2781      0.18768500
       7608.5503      0.20890420
       7609.8224      0.21297800
       7611.0946      0.22089390
       7612.3669      0.20977760
       7613.6390      0.20438170
       7614.9112      0.22743170
       7616.1834      0.22263100
       7617.4556      0.21694740
       7618.7277      0.21860030
       7620.0000      0.22063500
       7621.2722      0.20210470
       7622.5443      0.19903300
       7623.8165      0.20638820
       7625.0887      0.19622520
       7626.3609      0.19864970
       7627.6331      0.20277530
       7628.9053      0.20959590
       7630.1775      0.22800240
       7631.4496      0.20921110
       7632.7218      0.18507400
       7633.9941      0.19915030
       7635.2663      0.20136820
       7636.5384      0.18794660
       7637.8106      0.19505000
       7639.0828      0.21047770
       7640.3549      0.19295600
       7641.6272      0.17884300
       7642.8994      0.19728940
       7644.1715      0.19433270
       7645.4437      0.19072140
       7646.7159      0.19856570
       7647.9881      0.18819940
       7649.2603      0.17765310
       7650.5325      0.18100530
       7651.8047      0.17799510
       7653.0768      0.17624340
       7654.3490      0.18071710
       7655.6213      0.18959890
       7656.8935      0.18720640
       7658.1656      0.17812820
       7659.4378      0.17955690
       7660.7100      0.17823830
       7661.9821      0.19035190
       7663.2544      0.18101640
       7664.5266      0.16800150
       7665.7988      0.17781070
       7667.0709      0.18273940
       7668.3431      0.18965970
       7669.6153      0.19369370
       7670.8875      0.19170080
       7672.1597      0.19980160
       7673.4319      0.19807820
       7674.7041      0.19776390
       7675.9762      0.20359050
       7677.2485      0.19883730
       7678.5207      0.20567310
       7679.7928      0.21268340
       7681.0650      0.20734950
       7682.3372      0.20521430
       7683.6093      0.21352830
       7684.8816      0.22285700
       7686.1538      0.23399750
       7687.4260      0.25023560
       7688.6981      0.25244260
       7689.9703      0.25226400
       7691.2425      0.26001570
       7692.5147      0.28322290
       7693.7869      0.28217740
       7695.0591      0.29079810
       7696.3313      0.28989910
       7697.6034      0.29739770
       7698.8757      0.30481130
       7700.1479      0.31969000
       7701.4200      0.32881810
       7702.6922      0.33883320
       7703.9644      0.34254310
       7705.2366      0.35399540
       7706.5088      0.35591490
       7707.7810      0.36662840
       7709.0532      0.37016890
       7710.3253      0.36638740
       7711.5975      0.38127480
       7712.8697      0.39164200
       7714.1419      0.38713940
       7715.4141      0.38826260
       7716.6863      0.39934570
       7717.9585      0.40910860
       7719.2306      0.40810780
       7720.5029      0.41714600
       7721.7751      0.42731380
       7723.0472      0.42628010
       7724.3194      0.44056680
       7725.5916      0.44553040
       7726.8638      0.45268480
       7728.1360      0.47073330
       7729.4082      0.46061770
       7730.6804      0.46584680
       7731.9525      0.46395630
       7733.2247      0.46878590
       7734.4969      0.47464510
       7735.7692      0.47801740
       7737.0413      0.47237420
       7738.3135      0.46856930
       7739.5857      0.47379470
       7740.8578      0.47403500
       7742.1301      0.49820240
       7743.4023      0.50621350
       7744.6745      0.50224690
       7745.9466      0.51614250
       7747.2188      0.51795990
       7748.4910      0.53252680
       7749.7632      0.52987290
       7751.0354      0.52902860
       7752.3076      0.54215190
       7753.5797      0.54687500
       7754.8519      0.55117180
       7756.1241      0.54437880
       7757.3964      0.54694610
       7758.6685      0.53876180
       7759.9407      0.54393660
       7761.2129      0.56014710
       7762.4850      0.56201670
       7763.7573      0.56422960
       7765.0295      0.56067180
       7766.3017      0.53460810
       7767.5738      0.53331430
       7768.8460      0.56508240
       7770.1182      0.57386580
       7771.3904      0.57148220
       7772.6626      0.57081580
       7773.9348      0.57953360
       7775.2070      0.58308240
       7776.4791      0.60482080
       7777.7513      0.61787780
       7779.0236      0.59174060
       7780.2957      0.58229400
       7781.5679      0.58154590
       7782.8401      0.58543650
       7784.1122      0.58440370
       7785.3845      0.58373790
       7786.6567      0.58670320
       7787.9289      0.57198680
       7789.2010      0.57181130
       7790.4732      0.55753100
       7791.7454      0.56698980
       7793.0176      0.54932940
       7794.2898      0.56458270
       7795.5620      0.56300800
       7796.8342      0.55086960
       7798.1063      0.54146710
       7799.3785      0.54418410
       7800.6508      0.54562400
       7801.9229      0.53672020
       7803.1951      0.52860290
       7804.4673      0.52592610
       7805.7395      0.51183090
       7807.0117      0.50234790
       7808.2839      0.49789900
       7809.5561      0.49958120
       7810.8282      0.49754750
       7812.1004      0.49222760
       7813.3726      0.49796050
       7814.6449      0.49086960
       7815.9170      0.49044260
       7817.1892      0.49612150
       7818.4614      0.48049000
       7819.7335      0.44438060
       7821.0057      0.46266850
       7822.2780      0.47826760
       7823.5501      0.47526780
       7824.8223      0.48154330
       7826.0945      0.46397430
       7827.3667      0.45881460
       7828.6389      0.45132830
       7829.9111      0.46380350
       7831.1833      0.45716080
       7832.4554      0.44786870
       7833.7276      0.45639520
       7834.9998      0.44916830
       7836.2721      0.44188510
       7837.5442      0.43798270
       7838.8164      0.45231550
       7840.0886      0.44181280
       7841.3607      0.43961580
       7842.6329      0.43160300
       7843.9052      0.43394870
       7845.1774      0.43570740
       7846.4495      0.42946130
       7847.7217      0.43089470
       7848.9939      0.43628420
       7850.2661      0.42419440
       7851.5383      0.42980480
       7852.8105      0.44444690
       7854.0827      0.43890540
       7855.3548      0.43680250
       7856.6270      0.43254280
       7857.8993      0.42894960
       7859.1714      0.42966290
       7860.4436      0.43115160
       7861.7158      0.42534450
       7862.9879      0.41182800
       7864.2601      0.41955740
       7865.5324      0.41258970
       7866.8046      0.41546030
       7868.0767      0.42413920
       7869.3489      0.41945680
       7870.6211      0.41518410
       7871.8933      0.42303730
       7873.1655      0.41998110
       7874.4377      0.40888010
       7875.7099      0.40212030
       7876.9820      0.40616820
       7878.2542      0.40754420
       7879.5265      0.39134760
       7880.7986      0.39584450
       7882.0708      0.38887770
       7883.3430      0.39964400
       7884.6152      0.39111180
       7885.8873      0.40573350
       7887.1596      0.39766400
       7888.4318      0.39310530
       7889.7039      0.40516960
       7890.9761      0.40983630
       7892.2483      0.40542620
       7893.5205      0.39897720
       7894.7927      0.39128090
       7896.0649      0.39671710
       7897.3371      0.40300950
       7898.6092      0.40150400
       7899.8814      0.40035420
       7901.1537      0.39285740
       7902.4258      0.38784710
       7903.6980      0.38581380
       7904.9702      0.40285700
       7906.2424      0.39779900
       7907.5146      0.38571510
       7908.7868      0.38779630
       7910.0590      0.39546570
       7911.3311      0.39240970
       7912.6033      0.39034240
       7913.8755      0.38227960
       7915.1478      0.40145510
       7916.4199      0.38398560
       7917.6921      0.38773900
       7918.9643      0.38586270
       7920.2364      0.38835380
       7921.5086      0.38081510
       7922.7809      0.38036170
       7924.0531      0.38814410
       7925.3252      0.38512030
       7926.5974      0.37141440
       7927.8696      0.36898090
       7929.1418      0.37619300
       7930.4140      0.37805150
       7931.6862      0.38056260
       7932.9583      0.36499790
       7934.2305      0.36957100
       7935.5027      0.37593790
       7936.7750      0.36136160
       7938.0471      0.36571180
       7939.3193      0.36437710
       7940.5915      0.35135840
       7941.8636      0.34849310
       7943.1358      0.34860770
       7944.4081      0.35590770
       7945.6803      0.35564750
       7946.9524      0.36070420
       7948.2246      0.36630010
       7949.4968      0.35346110
       7950.7690      0.35289030
       7952.0412      0.34478090
       7953.3134      0.34430920
       7954.5856      0.34568290
       7955.8577      0.34188160
       7957.1299      0.34497000
       7958.4022      0.33140140
       7959.6743      0.34557200
       7960.9465      0.34482170
       7962.2187      0.33032440
       7963.4908      0.32687680
       7964.7630      0.33016170
       7966.0353      0.31674670
       7967.3075      0.32132380
       7968.5796      0.33207030
       7969.8518      0.33696850
       7971.1240      0.34187660
       7972.3962      0.33207470
       7973.6684      0.32391420
       7974.9406      0.32371210
       7976.2128      0.32128670
       7977.4849      0.31996160
       7978.7571      0.32190650
       7980.0294      0.32288410
       7981.3015      0.31196060
       7982.5737      0.31123740
       7983.8459      0.31858220
       7985.1181      0.31503400
       7986.3902      0.31879320
       7987.6625      0.31010460
       7988.9347      0.30368380
       7990.2068      0.31224210
       7991.4790      0.30136870
       7992.7512      0.29869300
       7994.0235      0.30600210
       7995.2956      0.30195420
       7996.5678      0.29295810
       7997.8400      0.30089330
       7999.1121      0.29600990
       8000.3843      0.28324140
       8001.6566      0.28106270
       8002.9287      0.29677920
       8004.2009      0.29230160
       8005.4731      0.27868390
       8006.7453      0.28398300
       8008.0174      0.28350690
       8009.2897      0.27196400
       8010.5619      0.27335890
       8011.8340      0.26653500
       8013.1062      0.27730470
       8014.3784      0.27183570
       8015.6507      0.27469220
       8016.9228      0.27642600
       8018.1950      0.27547550
       8019.4672      0.27739850
       8020.7393      0.26959990
       8022.0115      0.27662300
       8023.2838      0.28528720
       8024.5560      0.27560130
       8025.8281      0.27214600
       8027.1003      0.27474520
       8028.3725      0.27785830
       8029.6446      0.27180910
       8030.9169      0.26274840
       8032.1891      0.27258860
       8033.4612      0.26670070
       8034.7334      0.26276900
       8036.0056      0.26638280
       8037.2779      0.26597160
       8038.5500      0.26348410
       8039.8222      0.27077970
       8041.0944      0.26508120
       8042.3665      0.26451030
       8043.6387      0.25760650
       8044.9110      0.25892330
       8046.1832      0.26317670
       8047.4553      0.26161260
       8048.7275      0.26129030
       8049.9997      0.25415620
       8051.2718      0.24187590
       8052.5441      0.24650210
       8053.8163      0.25372880
       8055.0885      0.24826580
       8056.3606      0.24687280
       8057.6328      0.25396780
       8058.9051      0.25745200
       8060.1772      0.25401720
       8061.4494      0.24917880
       8062.7216      0.24467830
       8063.9938      0.24531030
       8065.2659      0.24586390
       8066.5382      0.24435220
       8067.8104      0.24588680
       8069.0825      0.24743920
       8070.3547      0.24408210
       8071.6269      0.23967490
       8072.8990      0.24429130
       8074.1713      0.24537370
       8075.4435      0.24101310
       8076.7157      0.23641290
       8077.9878      0.24696470
       8079.2600      0.24067550
       8080.5323      0.23627000
       8081.8044      0.24270020
       8083.0766      0.24279890
       8084.3488      0.23547020
       8085.6210      0.22790060
       8086.8931      0.22451680
       8088.1654      0.22051050
       8089.4376      0.22993500
       8090.7097      0.22487670
       8091.9819      0.22796260
       8093.2541      0.22731070
       8094.5263      0.22474580
       8095.7985      0.20954500
       8097.0707      0.21579820
       8098.3429      0.21313030
       8099.6150      0.20785020
       8100.8872      0.20436460
       8102.1595      0.21073140
       8103.4316      0.21009850
       8104.7038      0.19999210
       8105.9760      0.20264940
       8107.2482      0.21346690
       8108.5203      0.21309480
       8109.7926      0.20299310
       8111.0648      0.20528870
       8112.3369      0.21043900
       8113.6091      0.21271110
       8114.8813      0.21277590
       8116.1535      0.20637650
       8117.4257      0.21009390
       8118.6979      0.20041070
       8119.9701      0.19925190
       8121.2422      0.19993770
       8122.5144      0.19899510
       8123.7867      0.19988820
       8125.0589      0.20586520
       8126.3310      0.20689600
       8127.6032      0.20996170
       8128.8754      0.20746630
       8130.1475      0.20478110
       8131.4198      0.19626380
       8132.6920      0.19479700
       8133.9642      0.19227580
       8135.2363      0.17953560
       8136.5085      0.19139760
       8137.7807      0.20593270
       8139.0529      0.20607330
       8140.3251      0.19556490
       8141.5973      0.19808760
       8142.8694      0.20145910
       8144.1416      0.18765180
       8145.4139      0.19184510
       8146.6861      0.20144020
       8147.9582      0.19517740
       8149.2304      0.19336840
       8150.5026      0.19271080
       8151.7747      0.19619850
       8153.0470      0.20279350
       8154.3192      0.19840460
       8155.5914      0.19842410
       8156.8635      0.20640080
       8158.1357      0.21265950
       8159.4079      0.20710880
       8160.6801      0.19570040
       8161.9523      0.19264090
       8163.2245      0.18316340
       8164.4967      0.19235970
       8165.7688      0.19546410
       8167.0411      0.19983050
       8168.3133      0.21171940
       8169.5854      0.18745210
       8170.8576      0.19026990
       8172.1298      0.20561210
       8173.4020      0.20487140
       8174.6742      0.21355620
       8175.9464      0.20471300
       8177.2186      0.19471010
       8178.4907      0.17947370
       8179.7629      0.18707740
       8181.0351      0.18862910
       8182.3073      0.19191370
       8183.5795      0.20112780
       8184.8517      0.20585510
       8186.1239      0.19635270
       8187.3960      0.19238810
       8188.6683      0.18798740
       8189.9405      0.17698320
       8191.2126      0.18313170
       8192.4848      0.18593080
       8193.7570      0.18527090
       8195.0292      0.18948660
       8196.3014      0.18579370
       8197.5736      0.18274960
       8198.8458      0.17974330
       8200.1179      0.17738570
       8201.3901      0.17848500
       8202.6623      0.18317820
       8203.9346      0.19469750
       8205.2067      0.18056980
       8206.4789      0.18414080
       8207.7511      0.18497690
       8209.0232      0.17102370
       8210.2955      0.16544390
       8211.5677      0.16725180
       8212.8398      0.16966120
       8214.1120      0.16000510
       8215.3842      0.16197930
       8216.6564      0.16406830
       8217.9286      0.15864930
       8219.2008      0.14956540
       8220.4730      0.14595420
       8221.7451      0.13883110
       8223.0173      0.13752460
       8224.2895      0.13814310
       8225.5618      0.13511680
       8226.8339      0.12969340
       8228.1061      0.12220980
       8229.3783      0.11271300
       8230.6504      0.10985510
       8231.9227      0.10994240
       8233.1949      0.11288560
       8234.4671      0.10851390
       8235.7392     0.098883920
       8237.0114      0.10725150
       8238.2836      0.10640570
       8239.5558      0.10398590
       8240.8280     0.095651570
       8242.1002     0.094433350
       8243.3724     0.087959080
       8244.6445     0.093556630
       8245.9167     0.086942680
       8247.1890     0.086141520
       8248.4611     0.082300170
       8249.7333     0.081269310
       8251.0055     0.084322020
       8252.2776     0.082180030
       8253.5499     0.073674180
       8254.8221     0.071953790
       8256.0943     0.072345370
       8257.3664     0.072267930
       8258.6386     0.066546790
       8259.9108     0.068795180
       8261.1830     0.071889760
       8262.4552     0.073740110
       8263.7274     0.068148420
       8264.9996     0.066202010
       8266.2717     0.069279820
       8267.5439     0.067163110
       8268.8162     0.074408600
       8270.0883     0.075224430
       8271.3605     0.064648840
       8272.6327     0.061861490
       8273.9049     0.059652910
       8275.1771     0.059533290
       8276.4493     0.059735600
       8277.7215     0.056729000
       8278.9936     0.052125710
       8280.2658     0.056061900
       8281.5380     0.054322400
       8282.8102     0.064845110
       8284.0824     0.067063240
       8285.3546     0.066951500
       8286.6268     0.064294290
       8287.8989     0.055801110
       8289.1711     0.049285780
       8290.4434     0.051076620
       8291.7155     0.051902460
       8292.9877     0.055608970
       8294.2599     0.054646630
       8295.5321     0.051058200
       8296.8043     0.042320070
       8298.0765     0.047894750
       8299.3487     0.050885460
       8300.6208     0.053951290
       8301.8930     0.051427430
       8303.1652     0.050164020
       8304.4375     0.049143800
       8305.7096     0.046110540
       8306.9818     0.043144920
       8308.2540     0.052648490
       8309.5261     0.054631990
       8310.7983     0.049723460
       8312.0706     0.050008620
       8313.3428     0.048649900
       8314.6149     0.053596550
       8315.8871     0.051569340
       8317.1593     0.054620950
       8318.4315     0.051670970
       8319.7037     0.046310350
       8320.9759     0.050818430
       8322.2480     0.054315610
       8323.5202     0.056946300
       8324.7924     0.060015240
       8326.0647     0.054742820
       8327.3368     0.061454990
       8328.6090     0.053628470
       8329.8812     0.055453560
       8331.1533     0.059843030
       8332.4255     0.054856060
       8333.6978     0.051806330
       8334.9700     0.058565160
       8336.2421     0.062488040
       8337.5143     0.053492470
       8338.7865     0.054938730
       8340.0587     0.055564890
       8341.3309     0.052850530
       8342.6031     0.047663820
       8343.8753     0.069132330
       8345.1474     0.061380570
       8346.4196     0.056569270
       8347.6919     0.061764070
       8348.9640     0.054251590
       8350.2362     0.060333520
       8351.5084     0.063481850
       8352.7805     0.065253770
       8354.0527     0.066420710
       8355.3250     0.060397980
       8356.5972     0.055180500
       8357.8693     0.059100820
       8359.1415     0.068211770
       8360.4137     0.061533980
       8361.6859     0.061290580
       8362.9581     0.069327240
       8364.2303     0.068555950
       8365.5025     0.073252310
       8366.7746     0.059617530
       8368.0468     0.058904350
       8369.3191     0.067018260
       8370.5912     0.066492600
       8371.8634     0.070640770
       8373.1356     0.076220020
       8374.4078     0.074877570
       8375.6799     0.061093180
       8376.9522     0.074176100
       8378.2244     0.068774830
       8379.4965     0.068627640
       8380.7687     0.076981950
       8382.0409     0.073382940
       8383.3132     0.062087890
       8384.5853     0.060675620
       8385.8575     0.068878510
       8387.1297     0.078845080
       8388.4018     0.079246660
       8389.6740     0.075042860
       8390.9463     0.077068560
       8392.2184     0.077790650
       8393.4906     0.080875380
       8394.7628     0.082377120
       8396.0350     0.070325390
       8397.3071     0.063639390
       8398.5794     0.076137290
       8399.8516     0.082899430
       8401.1237     0.078346390
       8402.3959     0.083530090
       8403.6681     0.083503620
       8404.9404     0.087016300
       8406.2125     0.086751220
       8407.4847     0.087323000
       8408.7569     0.083983140
       8410.0290     0.086768620
       8411.3012     0.083685740
       8412.5735     0.088347710
       8413.8457     0.090102910
       8415.1178     0.094253430
       8416.3900     0.096927430
       8417.6622     0.094829500
       8418.9343     0.094868480
       8420.2066     0.094118180
       8421.4788      0.10043130
       8422.7509     0.098079430
       8424.0231     0.098423140
       8425.2953      0.10261870
       8426.5676      0.10125130
       8427.8397     0.087232500
       8429.1119     0.088601100
       8430.3841     0.097839410
       8431.6562     0.099634390
       8432.9284      0.10760440
       8434.2007      0.10146580
       8435.4729      0.10561550
       8436.7450      0.10992810
       8438.0172      0.11504850
       8439.2894      0.11172950
       8440.5615      0.10257120
       8441.8338      0.11065000
       8443.1060      0.12038360
       8444.3782      0.11551210
       8445.6503      0.12793200
       8446.9225      0.12883890
       8448.1948      0.12306330
       8449.4669      0.12313790
       8450.7391      0.11675920
       8452.0113      0.12725990
       8453.2835      0.13931350
       8454.5556      0.13770390
       8455.8279      0.14205450
       8457.1001      0.14189150
       8458.3722      0.14227010
       8459.6444      0.15188190
       8460.9166      0.15267540
       8462.1887      0.15455850
       8463.4610      0.15965450
       8464.7332      0.15532840
       8466.0054      0.15868770
       8467.2775      0.16521100
       8468.5497      0.16703000
       8469.8220      0.17653450
       8471.0941      0.17523290
       8472.3663      0.16180640
       8473.6385      0.16431660
       8474.9107      0.17985880
       8476.1828      0.18958070
       8477.4551      0.18291120
       8478.7273      0.18449450
       8479.9994      0.19917040
       8481.2716      0.20046810
       8482.5438      0.20231040
       8483.8160      0.20608710
       8485.0882      0.21078580
       8486.3604      0.20837680
       8487.6326      0.21274970
       8488.9047      0.21927880
       8490.1769      0.22961250
       8491.4492      0.22829410
       8492.7214      0.23785370
       8493.9935      0.23743540
       8495.2657      0.23706410
       8496.5379      0.23782080
       8497.8100      0.24505200
       8499.0823      0.24778730
       8500.3545      0.24929530
       8501.6266      0.24904320
       8502.8988      0.26162130
       8504.1710      0.26921540
       8505.4432      0.26923580
       8506.7154      0.27802070
       8507.9876      0.28019390
       8509.2598      0.28749370
       8510.5319      0.30222610
       8511.8041      0.29930560
       8513.0764      0.29899130
       8514.3486      0.31567990
       8515.6207      0.32394700
       8516.8929      0.32004430
       8518.1651      0.32852480
       8519.4372      0.33539080
       8520.7095      0.33908350
       8521.9817      0.34599390
       8523.2539      0.35238950
       8524.5260      0.35240290
       8525.7982      0.37177030
       8527.0704      0.37230540
       8528.3426      0.36935440
       8529.6148      0.39064740
       8530.8870      0.40141900
       8532.1591      0.39631250
       8533.4313      0.41392300
       8534.7036      0.42281650
       8535.9758      0.42171790
       8537.2479      0.44676250
       8538.5201      0.45201190
       8539.7923      0.45366610
       8541.0644      0.46232050
       8542.3367      0.47586170
       8543.6089      0.48919760
       8544.8811      0.48701770
       8546.1532      0.48311360
       8547.4254      0.50797030
       8548.6976      0.52787370
       8549.9698      0.52057970
       8551.2420      0.52531960
       8552.5142      0.53246730
       8553.7864      0.54825030
       8555.0585      0.55655430
       8556.3308      0.55748570
       8557.6030      0.58148040
       8558.8751      0.60347340
       8560.1473      0.63623550
       8561.4195      0.64647780
       8562.6917      0.64696330
       8563.9639      0.67447510
       8565.2361      0.68121380
       8566.5083      0.67920810
       8567.7804      0.69818760
       8569.0526      0.71917190
       8570.3248      0.71777300
       8571.5970      0.73653610
       8572.8692      0.76025840
       8574.1414      0.77295830
       8575.4136      0.77147260
       8576.6857      0.80206630
       8577.9580      0.83079360
       8579.2302      0.82866230
       8580.5023      0.81237710
       8581.7745      0.83255960
       8583.0467      0.87184680
       8584.3189      0.88752410
       8585.5911      0.89963490
       8586.8633      0.91370660
       8588.1355      0.91865640
       8589.4076      0.92609800
       8590.6798      0.95065710
       8591.9520      0.96802900
       8593.2243      0.95101160
       8594.4964      0.95578940
       8595.7686      0.98718260
       8597.0408       1.0048810
       8598.3129       1.0351640
       8599.5852       1.0285600
       8600.8574       1.0571070
       8602.1295       1.0532650
       8603.4017       1.0642930
       8604.6739       1.1275900
       8605.9461       1.1374600
       8607.2183       1.1295710
       8608.4905       1.1429040
       8609.7627       1.1584460
       8611.0348       1.1831910
       8612.3070       1.2050280
       8613.5792       1.2280460
       8614.8515       1.2319620
       8616.1236       1.2385240
       8617.3958       1.2458550
       8618.6680       1.2513800
       8619.9401       1.2671790
       8621.2124       1.2968210
       8622.4846       1.3227950
       8623.7568       1.3441210
       8625.0289       1.3531200
       8626.3011       1.3518430
       8627.5733       1.3637790
       8628.8455       1.3829890
       8630.1177       1.4269830
       8631.3899       1.4551130
       8632.6621       1.4243960
       8633.9342       1.4225680
       8635.2064       1.4560690
       8636.4787       1.4706010
       8637.7508       1.4988850
       8639.0230       1.4869910
       8640.2952       1.4858630
       8641.5673       1.4796670
       8642.8396       1.4706630
       8644.1118       1.4834540
       8645.3840       1.4979370
       8646.6561       1.5128980
       8647.9283       1.5127720
       8649.2005       1.5245730
       8650.4727       1.5145320
       8651.7449       1.5205450
       8653.0171       1.5140200
       8654.2893       1.5836590
       8655.5614       1.5747370
       8656.8336       1.5598500
       8658.1059       1.6060090
       8659.3780       1.6258130
       8660.6502       1.6114090
       8661.9224       1.6128540
       8663.1946       1.6276690
       8664.4668       1.6189860
       8665.7390       1.6141850
       8667.0112       1.6225740
       8668.2833       1.6435880
       8669.5555       1.6611470
       8670.8277       1.6544930
       8672.0999       1.6620020
       8673.3721       1.6746200
       8674.6443       1.6788590
       8675.9165       1.6501860
       8677.1886       1.6622990
       8678.4608       1.6812350
       8679.7331       1.6784450
       8681.0052       1.6941820
       8682.2774       1.6591060
       8683.5496       1.6415190
       8684.8218       1.6689140
       8686.0940       1.6550720
       8687.3662       1.6296870
       8688.6384       1.6172120
       8689.9105       1.6075070
       8691.1827       1.6013940
       8692.4549       1.5871380
       8693.7272       1.5713390
       8694.9993       1.5737820
       8696.2715       1.5548760
       8697.5437       1.5363350
       8698.8158       1.5637270
       8700.0880       1.5704840
       8701.3603       1.5353400
       8702.6325       1.5258420
       8703.9046       1.5360470
       8705.1768       1.5308470
       8706.4490       1.5091040
       8707.7212       1.4849530
       8708.9934       1.4791740
       8710.2656       1.4567440
       8711.5377       1.4199900
       8712.8099       1.4075120
       8714.0821       1.3786890
       8715.3544       1.3905250
       8716.6265       1.4209560
       8717.8987       1.4045470
       8719.1709       1.3919290
       8720.4430       1.4134890
       8721.7152       1.3932860
       8722.9875       1.3973780
       8724.2597       1.3508840
       8725.5318       1.3593470
       8726.8040       1.3765640
       8728.0762       1.3894510
       8729.3484       1.3831950
       8730.6206       1.3754170
       8731.8928       1.3713320
       8733.1650       1.3788410
       8734.4371       1.3298510
       8735.7093       1.3237490
       8736.9816       1.3452630
       8738.2537       1.3294120
       8739.5259       1.3169930
       8740.7981       1.2898220
       8742.0702       1.2895310
       8743.3424       1.3172920
       8744.6147       1.3061370
       8745.8869       1.3001460
       8747.1590       1.3339700
       8748.4312       1.3308240
       8749.7034       1.2790900
       8750.9756       1.3060380
       8752.2478       1.3155730
       8753.5200       1.2802370
       8754.7922       1.2863210
       8756.0643       1.2739810
       8757.3365       1.2897020
       8758.6088       1.2645470
       8759.8809       1.2575020
       8761.1531       1.2824430
       8762.4253       1.2394900
       8763.6975       1.2526470
       8764.9696       1.2586540
       8766.2419       1.2670200
       8767.5141       1.2286540
       8768.7862       1.2132950
       8770.0584       1.2092310
       8771.3306       1.2173420
       8772.6029       1.2305530
       8773.8750       1.2021930
       8775.1472       1.1865570
       8776.4194       1.2223360
       8777.6915       1.2253060
       8778.9637       1.1960880
       8780.2360       1.1868720
       8781.5081       1.1740310
       8782.7803       1.1702100
       8784.0525       1.1711590
       8785.3247       1.1671990
       8786.5968       1.1758510
       8787.8691       1.1748860
       8789.1413       1.1767520
       8790.4134       1.1698740
       8791.6856       1.1596370
       8792.9578       1.1406180
       8794.2301       1.1562200
       8795.5022       1.1583870
       8796.7744       1.1439870
       8798.0466       1.1719890
       8799.3187       1.1610850
       8800.5909       1.1490490
       8801.8632       1.1297930
       8803.1354       1.1118120
       8804.4075       1.1343070
       8805.6797       1.1409210
       8806.9519       1.1063160
       8808.2240       1.0938950
       8809.4963       1.1068600
       8810.7685       1.1115590
       8812.0406       1.0762120
       8813.3128       1.0766040
       8814.5850       1.0996770
       8815.8573       1.0854480
       8817.1294       1.0898410
       8818.4016       1.0840270
       8819.6738       1.0711870
       8820.9459       1.0913960
       8822.2181       1.0906390
       8823.4904       1.0804410
       8824.7626       1.0686360
       8826.0347       1.0840250
       8827.3069       1.0570570
       8828.5791       1.0472400
       8829.8512       1.0412880
       8831.1235       1.0495630
       8832.3957       1.0381660
       8833.6679       1.0132610
       8834.9400       1.0221070
       8836.2122       1.0119040
       8837.4845      0.97748030
       8838.7566      0.97590800
       8840.0288      0.96977200
       8841.3010      0.95568000
       8842.5732      0.94058280
       8843.8453      0.94232020
       8845.1176      0.92302820
       8846.3898      0.90783090
       8847.6619      0.87544770
       8848.9341      0.87654800
       8850.2063      0.88840850
       8851.4784      0.87393110
       8852.7507      0.87326760
       8854.0229      0.86919450
       8855.2951      0.84239410
       8856.5672      0.83692400
       8857.8394      0.83991480
       8859.1117      0.83362730
       8860.3838      0.83120320
       8861.6560      0.80876750
       8862.9282      0.81714260
       8864.2004      0.81382980
       8865.4725      0.78992460
       8866.7448      0.78117190
       8868.0170      0.77916260
       8869.2891      0.74989000
       8870.5613      0.76879520
       8871.8335      0.76165250
       8873.1057      0.74211400
       8874.3779      0.69641350
       8875.6501      0.70693090
       8876.9223      0.70395020
       8878.1944      0.68294770
       8879.4666      0.67894260
       8880.7389      0.68364830
       8882.0111      0.66663150
       8883.2832      0.65702330
       8884.5554      0.62259310
       8885.8276      0.63607800
       8887.0997      0.64773480
       8888.3720      0.61977330
       8889.6442      0.61631260
       8890.9163      0.61261940
       8892.1885      0.61063300
       8893.4607      0.60993030
       8894.7329      0.60089170
       8896.0051      0.59200150
       8897.2773      0.57473280
       8898.5495      0.57703520
       8899.8216      0.56541890
       8901.0938      0.55334660
       8902.3661      0.54307760
       8903.6383      0.52541720
       8904.9104      0.51855870
       8906.1826      0.52183360
       8907.4548      0.52508520
       8908.7269      0.52167080
       8909.9992      0.49104100
       8911.2714      0.48933050
       8912.5436      0.50600950
       8913.8157      0.49592670
       8915.0879      0.48308090
       8916.3601      0.45984990
       8917.6323      0.45735630
       8918.9045      0.43469000
       8920.1767      0.44469960
       8921.4488      0.45291350
       8922.7210      0.42695830
       8923.9933      0.41797550
       8925.2655      0.42337550
       8926.5376      0.40161670
       8927.8098      0.39020620
       8929.0820      0.39306590
       8930.3541      0.38843450
       8931.6264      0.37356270
       8932.8986      0.37083990
       8934.1708      0.37426040
       8935.4429      0.35113930
       8936.7151      0.35516250
       8937.9873      0.36279170
       8939.2595      0.34929890
       8940.5317      0.34722450
       8941.8039      0.33705330
       8943.0761      0.32811530
       8944.3482      0.32262970
       8945.6205      0.32272900
       8946.8927      0.31976030
       8948.1648      0.31646110
       8949.4370      0.30100720
       8950.7092      0.30586950
       8951.9814      0.31078000
       8953.2536      0.28614940
       8954.5258      0.26883900
       8955.7980      0.25904300
       8957.0701      0.29257490
       8958.3423      0.30036030
       8959.6145      0.27771790
       8960.8867      0.29350640
       8962.1589      0.27044230
       8963.4311      0.24853800
       8964.7033      0.25044410
       8965.9754      0.25373280
       8967.2477      0.26569090
       8968.5199      0.26375160
       8969.7920      0.25458050
       8971.0642      0.24593590
       8972.3364      0.24059650
       8973.6086      0.24367820
       8974.8808      0.25031210
       8976.1530      0.26493420
       8977.4252      0.26647360
       8978.6973      0.27582750
       8979.9695      0.25984780
       8981.2417      0.24966440
       8982.5140      0.27448460
       8983.7861      0.27865120
       8985.0583      0.26846220
       8986.3305      0.24545210
       8987.6026      0.22344070
       8988.8749      0.20579770
       8990.1471      0.21735230
       8991.4192      0.20915800
       8992.6914      0.20106720
       8993.9636      0.25040000
       8995.2358      0.28165540
       8996.5080      0.29005750
       8997.7802      0.30246890
       8999.0524      0.27591800
       9000.3245      0.24977660
       9001.5967      0.25154810
       9002.8689      0.24788300
       9004.1412      0.24395850
       9005.4133      0.26152860
       9006.6855      0.27160970
       9007.9577      0.26771000
       9009.2298      0.27057770
       9010.5021      0.27911830
       9011.7743      0.29197310
       9013.0465      0.29484120
       9014.3186      0.29217720
       9015.5908      0.27453440
       9016.8630      0.25661640
       9018.1352      0.27881160
       9019.4074      0.27805940
       9020.6796      0.29829580
       9021.9518      0.30520850
       9023.2239      0.29052930
       9024.4961      0.29451500
       9025.7684      0.28701680
       9027.0405      0.28970470
       9028.3127      0.31159580
       9029.5849      0.30930650
       9030.8570      0.31157490
       9032.1293      0.33306440
       9033.4015      0.34234450
       9034.6737      0.34135160
       9035.9458      0.33525840
       9037.2180      0.33079180
       9038.4902      0.34213930
       9039.7624      0.33646550
       9041.0346      0.33485670
       9042.3068      0.33388630
       9043.5790      0.32753760
       9044.8511      0.33534750
       9046.1233      0.34518670
       9047.3956      0.34674870
       9048.6677      0.33739380
       9049.9399      0.33453820
       9051.2121      0.35759620
       9052.4843      0.36633980
       9053.7565      0.33382120
       9055.0287      0.33347230
       9056.3009      0.35656200
       9057.5730      0.37191990
       9058.8452      0.35743170
       9060.1174      0.34204980
       9061.3896      0.34742330
       9062.6618      0.31323960
       9063.9340      0.33626680
       9065.2062      0.36159590
       9066.4783      0.35849020
       9067.7505      0.37281760
       9069.0228      0.35441330
       9070.2949      0.33432810
       9071.5671      0.33347450
       9072.8393      0.33119100
       9074.1115      0.33395680
       9075.3837      0.36077000
       9076.6559      0.37871500
       9077.9281      0.37365210
       9079.2002      0.33770830
       9080.4724      0.32543290
       9081.7446      0.34912290
       9083.0169      0.36105030
       9084.2890      0.36947400
       9085.5612      0.36687970
       9086.8334      0.35450030
       9088.1055      0.35974510
       9089.3777      0.36710430
       9090.6500      0.38165620
       9091.9222      0.39025370
       9093.1943      0.37850510
       9094.4665      0.38405160
       9095.7387      0.38305620
       9097.0109      0.39102330
       9098.2831      0.37876520
       9099.5553      0.35660260
       9100.8274      0.35752600
       9102.0996      0.35355640
       9103.3718      0.39327410
       9104.6441      0.38569340
       9105.9162      0.35272490
       9107.1884      0.33397630
       9108.4606      0.33747000
       9109.7327      0.33778920
       9111.0049      0.36855480
       9112.2772      0.38503470
       9113.5494      0.40340140
       9114.8215      0.39688800
       9116.0937      0.36375030
       9117.3659      0.34661560
       9118.6381      0.33376550
       9119.9103      0.32661590
       9121.1825      0.35580500
       9122.4547      0.38452430
       9123.7268      0.39493040
       9124.9990      0.39115460
       9126.2713      0.37115470
       9127.5434      0.36564270
       9128.8156      0.33445500
       9130.0878      0.30791060
       9131.3599      0.31528200
       9132.6321      0.32731630
       9133.9044      0.32740720
       9135.1766      0.30236090
       9136.4487      0.28234050
       9137.7209      0.29202190
       9138.9931      0.32521740
       9140.2653      0.34948800
       9141.5375      0.34847100
       9142.8097      0.35121710
       9144.0819      0.33484450
       9145.3540      0.36619990
       9146.6262      0.36475150
       9147.8985      0.36387060
       9149.1706      0.35030160
       9150.4428      0.33173260
       9151.7150      0.31777220
       9152.9872      0.29995650
       9154.2593      0.27520870
       9155.5316      0.28025650
       9156.8038      0.30748380
       9158.0759      0.33665210
       9159.3481      0.34076360
       9160.6203      0.32932400
       9161.8926      0.33542230
       9163.1647      0.33553670
       9164.4369      0.33705670
       9165.7091      0.34440700
       9166.9812      0.35186040
       9168.2534      0.36175430
       9169.5257      0.35008470
       9170.7978      0.34003900
       9172.0700      0.33379960
       9173.3422      0.32136010
       9174.6144      0.30918060
       9175.8865      0.31189140
       9177.1588      0.32850390
       9178.4310      0.35904920
       9179.7031      0.36343430
       9180.9753      0.37499430
       9182.2475      0.36081780
       9183.5198      0.35865080
       9184.7919      0.36356180
       9186.0641      0.37099420
       9187.3363      0.38863880
       9188.6084      0.39145560
       9189.8806      0.39693200
       9191.1529      0.39655430
       9192.4251      0.38134850
       9193.6972      0.38588040
       9194.9694      0.37180030
       9196.2416      0.36708800
       9197.5137      0.38469930
       9198.7860      0.40824640
       9200.0582      0.43375400
       9201.3304      0.44137860
       9202.6025      0.44059600
       9203.8747      0.41376690
       9205.1470      0.41745790
       9206.4191      0.41893040
       9207.6913      0.40671350
       9208.9635      0.43669600
       9210.2356      0.42649580
       9211.5078      0.41975020
       9212.7801      0.43205220
       9214.0523      0.42987210
       9215.3244      0.40773260
       9216.5966      0.39876060
       9217.8688      0.40105170
       9219.1409      0.41501680
       9220.4132      0.42316190
       9221.6854      0.43792380
       9222.9576      0.43895620
       9224.2297      0.44900030
       9225.5019      0.44142640
       9226.7742      0.44171960
       9228.0463      0.46517270
       9229.3185      0.46846500
       9230.5907      0.44853670
       9231.8629      0.44961080
       9233.1350      0.46117240
       9234.4073      0.45154470
       9235.6795      0.43960640
       9236.9516      0.44110540
       9238.2238      0.43712410
       9239.4960      0.43527890
       9240.7681      0.45189160
       9242.0404      0.45395990
       9243.3126      0.43761220
       9244.5848      0.43156210
       9245.8569      0.42908350
       9247.1291      0.45019370
       9248.4014      0.47581200
       9249.6735      0.45868620
       9250.9457      0.44308480
       9252.2179      0.45560680
       9253.4901      0.47347790
       9254.7622      0.47611590
       9256.0345      0.48393500
       9257.3067      0.47139240
       9258.5788      0.46477650
       9259.8510      0.45968440
       9261.1232      0.45761550
       9262.3955      0.46952790
       9263.6676      0.47635890
       9264.9398      0.48503510
       9266.2120      0.48593780
       9267.4841      0.49896800
       9268.7563      0.49631280
       9270.0286      0.48353270
       9271.3008      0.46864620
       9272.5729      0.44971930
       9273.8451      0.45605970
       9275.1173      0.46272460
       9276.3894      0.44140040
       9277.6617      0.42975220
       9278.9339      0.41914120
       9280.2060      0.40578550
       9281.4782      0.42867340
       9282.7504      0.44158740
       9284.0227      0.42500850
       9285.2948      0.39910690
       9286.5670      0.41958910
       9287.8392      0.41503650
       9289.1113      0.42070080
       9290.3835      0.43971710
       9291.6558      0.43225860
       9292.9280      0.44147040
       9294.2001      0.41299870
       9295.4723      0.39304760
       9296.7445      0.38204560
       9298.0166      0.36217760
       9299.2889      0.36284090
       9300.5611      0.36652600
       9301.8333      0.36644750
       9303.1054      0.39011530
       9304.3776      0.39539450
       9305.6499      0.40860490
       9306.9220      0.41019500
       9308.1942      0.36028870
       9309.4664      0.31052340
       9310.7385      0.32823050
       9312.0107      0.35681010
       9313.2830      0.36415760
       9314.5552      0.36774020
       9315.8273      0.31973860
       9317.0995      0.25677400
       9318.3717      0.26476100
       9319.6438      0.32085550
       9320.9161      0.35098550
       9322.1883      0.33661250
       9323.4605      0.29751430
       9324.7326      0.27748580
       9326.0048      0.27276140
       9327.2771      0.31601460
       9328.5492      0.37062640
       9329.8214      0.38805150
       9331.0936      0.38454790
       9332.3658      0.34756210
       9333.6379      0.28684140
       9334.9102      0.24576090
       9336.1824      0.26517670
       9337.4545      0.30133200
       9338.7267      0.28391870
       9339.9989      0.28501090
       9341.2711      0.26607420
       9342.5433      0.21518080
       9343.8155      0.16886680
       9345.0877      0.16855570
       9346.3598      0.23105810
       9347.6320      0.34227400
       9348.9043      0.41501590
       9350.1764      0.44030670
       9351.4486      0.41742220
       9352.7208      0.34526830
       9353.9930      0.28156160
       9355.2651      0.24948790
       9356.5374      0.24289870
       9357.8096      0.23650250
       9359.0817      0.26762220
       9360.3539      0.32271070
       9361.6261      0.37798220
       9362.8983      0.38242410
       9364.1705      0.33786750
       9365.4427      0.33742850
       9366.7149      0.32203190
       9367.9870      0.28836280
       9369.2592      0.24664360
       9370.5315      0.23385960
       9371.8037      0.23660190
       9373.0758      0.28606700
       9374.3480      0.31820590
       9375.6202      0.28272720
       9376.8923      0.27426120
       9378.1646      0.26481980
       9379.4368      0.27495950
       9380.7089      0.24980600
       9381.9811      0.26117390
       9383.2533      0.30320250
       9384.5255      0.34177350
       9385.7977      0.34405770
       9387.0699      0.33820400
       9388.3421      0.35132760
       9389.6142      0.38698260
       9390.8864      0.41639410
       9392.1587      0.41729410
       9393.4309      0.42400430
       9394.7030      0.41651010
       9395.9752      0.40868100
       9397.2474      0.40564730
       9398.5195      0.37602250
       9399.7918      0.35258660
       9401.0640      0.33762270
       9402.3362      0.36164180
       9403.6083      0.36527940
       9404.8805      0.39944610
       9406.1527      0.37259630
       9407.4249      0.38965630
       9408.6971      0.36026950
       9409.9693      0.32886430
       9411.2415      0.34145590
       9412.5136      0.36006360
       9413.7859      0.38323130
       9415.0581      0.39210670
       9416.3302      0.37256980
       9417.6024      0.36667620
       9418.8746      0.37796640
       9420.1467      0.36613620
       9421.4190      0.39168080
       9422.6912      0.38239700
       9423.9634      0.35593670
       9425.2355      0.34498650
       9426.5077      0.28024180
       9427.7799      0.23522760
       9429.0521      0.23803310
       9430.3243      0.26066870
       9431.5965      0.31280790
       9432.8687      0.37669050
       9434.1408      0.43171190
       9435.4131      0.40504700
       9436.6853      0.35330420
       9437.9574      0.30862960
       9439.2296      0.25959980
       9440.5018      0.23026660
       9441.7740      0.21257560
       9443.0462      0.26736360
       9444.3184      0.28994740
       9445.5906      0.32561260
       9446.8627      0.39965990
