Units are: observed wavelength (Ang), observed flux (10^-15 erg/s/cm^2/Ang)
       3473.0000      0.38819140
       3474.4700       1.0080560
       3475.9400     -0.12663880
       3477.4100     -0.44370000
       3478.8800      0.23537720
       3480.3500      0.38078330
       3481.8200      0.22955570
       3483.2900   -0.0017648400
       3484.7600     -0.14769800
       3486.2300     -0.12380920
       3487.7000      0.35775550
       3489.1700      0.39972270
       3490.6400      0.26255370
       3492.1100    -0.077198580
       3493.5800     0.052542750
       3495.0500      0.39634320
       3496.5200      0.89923560
       3497.9900      0.65790080
       3499.4600     -0.23980210
       3500.9300     -0.19345840
       3502.4000      0.19521780
       3503.8700   -0.0048311560
       3505.3400     -0.11850800
       3506.8100    -0.095606220
       3508.2800     -0.40000240
       3509.7500      0.17450500
       3511.2200      0.84004010
       3512.6900    0.0016861030
       3514.1600     -0.35937260
       3515.6300      0.20916210
       3517.1000      0.31355790
       3518.5700     0.052658600
       3520.0400    0.0055540490
       3521.5100      0.10509760
       3522.9800      0.88644160
       3524.4500       1.4414980
       3525.9200      0.66220930
       3527.3900    -0.070966970
       3528.8600     0.014936550
       3530.3300      0.18245650
       3531.8000      0.67537020
       3533.2700      0.76342110
       3534.7400      0.26692440
       3536.2100     -0.31689070
       3537.6800     -0.14444940
       3539.1500      0.13281210
       3540.6200     0.045756280
       3542.0900    -0.023671690
       3543.5600     -0.45460120
       3545.0300     -0.54963770
       3546.5000     -0.26230540
       3547.9700   -0.0046502820
       3549.4400     -0.17719130
       3550.9100     -0.47163980
       3552.3800     -0.13395080
       3553.8500    -0.017139410
       3555.3200     -0.18675910
       3556.7900     -0.39444750
       3558.2600     0.082978850
       3559.7300      0.29161930
       3561.2000     0.070289670
       3562.6700     -0.17150900
       3564.1400     -0.21495110
       3565.6100     0.034574510
       3567.0800     0.067150830
       3568.5500      0.23990040
       3570.0200      0.20583670
       3571.4900    -0.032738600
       3572.9600    -0.020842160
       3574.4300      0.20503190
       3575.9000      0.45118890
       3577.3700     0.082750940
       3578.8400    -0.026162130
       3580.3100     0.093747470
       3581.7800     0.033857910
       3583.2500   -0.0071616770
       3584.7200      0.15865220
       3586.1900     0.042778080
       3587.6600     -0.18709280
       3589.1300    -0.032800980
       3590.6000     0.010920920
       3592.0700    -0.037399280
       3593.5400     0.021055660
       3595.0100      0.11515330
       3596.4800      0.11327070
       3597.9500      0.42140120
       3599.4200       1.0137890
       3600.8900      0.65491000
       3602.3600      0.17064860
       3603.8300     0.021173640
       3605.3000     -0.18301490
       3606.7700     -0.10913830
       3608.2400    -0.054452450
       3609.7100      0.19801200
       3611.1800       1.0263130
       3612.6500       1.1384990
       3614.1200      0.19829850
       3615.5900     -0.18773700
       3617.0600    -0.016977840
       3618.5300     0.027748830
       3620.0000    0.0078682050
       3621.4700    -0.022033970
       3622.9400      0.21946590
       3624.4100      0.30057330
       3625.8800     0.034135110
       3627.3500    -0.033522700
       3628.8200      0.15878350
       3630.2900      0.44235480
       3631.7600      0.21917310
       3633.2300    -0.077186010
       3634.7000     0.054719590
       3636.1700      0.18515260
       3637.6400    -0.079669090
       3639.1100     -0.26802570
       3640.5800    -0.020535530
       3642.0500       1.2191010
       3643.5200       1.4040320
       3644.9900      0.24853480
       3646.4600      0.39316650
       3647.9300       1.0724750
       3649.4000      0.58925160
       3650.8700     -0.14164940
       3652.3400     -0.11712940
       3653.8100    -0.061437480
       3655.2800     -0.16052760
       3656.7500     0.052313500
       3658.2200      0.27738980
       3659.6900     0.095979590
       3661.1600     -0.12447670
       3662.6300     -0.11661770
       3664.1000     0.036068700
       3665.5700     0.017354210
       3667.0400     0.055516420
       3668.5100      0.21813060
       3669.9800      0.16710240
       3671.4500     0.084367420
       3672.9200      0.24244720
       3674.3900      0.19606470
       3675.8600      0.12356460
       3677.3300      0.51442490
       3678.8000      0.46531500
       3680.2700      0.43392710
       3681.7400      0.43839500
       3683.2100      0.13001720
       3684.6800      0.14875110
       3686.1500      0.23519030
       3687.6200      0.22986250
       3689.0900      0.10430620
       3690.5600     0.013770010
       3692.0300      0.10153780
       3693.5000     0.046830310
       3694.9700     0.033442830
       3696.4400      0.16187580
       3697.9100      0.50228580
       3699.3800       1.1294830
       3700.8500      0.59784820
       3702.3200     -0.20716440
       3703.7900     -0.18206530
       3705.2600    -0.056366700
       3706.7300     0.041788990
       3708.2000    -0.050969350
       3709.6700     0.030852350
       3711.1400     0.069320200
       3712.6100    -0.012806630
       3714.0800    -0.013671630
       3715.5500      0.14141390
       3717.0200      0.29168530
       3718.4900      0.61176260
       3719.9600      0.71164170
       3721.4300      0.12560460
       3722.9000    -0.053819470
       3724.3700     0.054781520
       3725.8400     0.050519440
       3727.3100      0.11902990
       3728.7800      0.20139410
       3730.2500      0.25742540
       3731.7200      0.23327230
       3733.1900      0.12082500
       3734.6600     0.067899890
       3736.1300  -0.00035220200
       3737.6000     -0.20384960
       3739.0700     -0.21892430
       3740.5400     0.054197300
       3742.0100      0.44803840
       3743.4800      0.46601260
       3744.9501      0.12581690
       3746.4200     0.012606420
       3747.8900    -0.017387460
       3749.3600     -0.10063770
       3750.8300     0.045298830
       3752.3000      0.19530330
       3753.7700      0.14043170
       3755.2400    0.0083382080
       3756.7100      0.12895760
       3758.1800      0.32588490
       3759.6500      0.18033070
       3761.1200    0.0053594620
       3762.5900     0.095988340
       3764.0600      0.41029850
       3765.5300      0.38930450
       3767.0000      0.16423560
       3768.4700      0.19806600
       3769.9400      0.26476320
       3771.4100      0.25307490
       3772.8800      0.19993860
       3774.3500      0.19827640
       3775.8200      0.22553710
       3777.2900      0.10455280
       3778.7600      0.13311370
       3780.2300      0.27601460
       3781.7000      0.14459420
       3783.1700      0.17902950
       3784.6400      0.21858660
       3786.1100     0.066882180
       3787.5800     0.093597570
       3789.0500      0.17444790
       3790.5200      0.19569190
       3791.9900      0.15793080
       3793.4600     0.062186050
       3794.9300     0.074617180
       3796.4000      0.16230120
       3797.8700      0.16380760
       3799.3400      0.15140860
       3800.8100      0.13775470
       3802.2800      0.17573830
       3803.7500      0.44552850
       3805.2200      0.87673840
       3806.6900      0.72307350
       3808.1600      0.29601920
       3809.6300      0.22645760
       3811.1000     0.097272440
       3812.5700     0.040877680
       3814.0400     0.090307720
       3815.5100      0.16536290
       3816.9800     0.050274270
       3818.4500    -0.040960100
       3819.9200    -0.046937830
       3821.3900     -0.10205060
       3822.8600     0.016164150
       3824.3300      0.17715810
       3825.8000     0.074478810
       3827.2700     0.058664300
       3828.7400      0.23614480
       3830.2100      0.23621890
       3831.6800      0.32397210
       3833.1500      0.44301100
       3834.6200      0.13301370
       3836.0900      0.10002940
       3837.5600      0.26442000
       3839.0300      0.15571400
       3840.5000     0.094992650
       3841.9700      0.12054650
       3843.4400      0.25966920
       3844.9100      0.28295320
       3846.3800     0.026677110
       3847.8500    -0.022313710
       3849.3200     0.053810850
       3850.7900     0.070303680
       3852.2600      0.11714050
       3853.7300      0.23509070
       3855.2000      0.28340750
       3856.6700      0.26577710
       3858.1400      0.15768780
       3859.6100      0.10298950
       3861.0800      0.23652670
       3862.5500      0.20304140
       3864.0200   -0.0063444740
       3865.4900     0.071478230
       3866.9600      0.18658770
       3868.4300      0.11994430
       3869.9000      0.19404130
       3871.3700      0.18673940
       3872.8400      0.19560310
       3874.3100      0.29166830
       3875.7800      0.13284570
       3877.2500     0.047357660
       3878.7200      0.14639650
       3880.1900      0.34579320
       3881.6600      0.33981170
       3883.1300      0.31497350
       3884.6000      0.33954910
       3886.0700      0.29725600
       3887.5400      0.27213990
       3889.0100      0.19147710
       3890.4800      0.15763800
       3891.9500      0.18124150
       3893.4200      0.20116000
       3894.8900      0.12779220
       3896.3600      0.20069420
       3897.8300      0.47681060
       3899.3000      0.47339940
       3900.7700      0.19756930
       3902.2400      0.24560900
       3903.7100      0.21816030
       3905.1800      0.35207290
       3906.6500      0.51021700
       3908.1200      0.37666250
       3909.5900      0.22086090
       3911.0600      0.25070230
       3912.5300      0.31022340
       3914.0000      0.29463630
       3915.4700      0.28669660
       3916.9400      0.40880450
       3918.4100      0.50931470
       3919.8800      0.36696640
       3921.3500      0.27113540
       3922.8200      0.30721560
       3924.2900      0.37598060
       3925.7600      0.41209740
       3927.2300      0.29214140
       3928.7000      0.27189820
       3930.1700      0.56919240
       3931.6400      0.48033270
       3933.1100      0.20304490
       3934.5800      0.31049290
       3936.0500      0.55032100
       3937.5200      0.48294890
       3938.9900      0.38914910
       3940.4600      0.38244570
       3941.9300      0.41893850
       3943.4000      0.61912660
       3944.8700      0.62755270
       3946.3400      0.44286570
       3947.8100      0.54857570
       3949.2800      0.49558370
       3950.7500      0.36174240
       3952.2200      0.47488500
       3953.6900      0.46176060
       3955.1600      0.35666560
       3956.6300      0.34817910
       3958.1000      0.38296060
       3959.5700      0.53039800
       3961.0400      0.54856880
       3962.5100      0.47737160
       3963.9800      0.49605000
       3965.4500      0.39372900
       3966.9200      0.31642540
       3968.3900      0.43084460
       3969.8600      0.51899450
       3971.3300      0.46102510
       3972.8000      0.46429870
       3974.2700      0.38460920
       3975.7400      0.39655500
       3977.2100      0.53722130
       3978.6800      0.54801520
       3980.1500      0.44880590
       3981.6200      0.50248070
       3983.0900      0.52895420
       3984.5600      0.39351500
       3986.0300      0.44217510
       3987.5000      0.50442380
       3988.9700      0.46028500
       3990.4400      0.53420080
       3991.9100      0.41778750
       3993.3800      0.29045170
       3994.8500      0.43152500
       3996.3200      0.62580550
       3997.7900      0.47891180
       3999.2600      0.37802300
       4000.7300      0.34481130
       4002.2000      0.37361780
       4003.6700      0.53590180
       4005.1400      0.51185870
       4006.6100      0.58782830
       4008.0800      0.67288150
       4009.5500      0.44869710
       4011.0200      0.36098470
       4012.4900      0.45632860
       4013.9600      0.66531050
       4015.4300      0.63394020
       4016.9000      0.53755110
       4018.3700      0.57145270
       4019.8400      0.62027830
       4021.3100      0.57311990
       4022.7800      0.41772960
       4024.2500      0.51850810
       4025.7200      0.58347770
       4027.1900      0.45833290
       4028.6600      0.41620260
       4030.1300      0.53465630
       4031.6000      0.56550750
       4033.0700      0.52706200
       4034.5400      0.56586970
       4036.0100      0.45310840
       4037.4800      0.44343790
       4038.9500      0.43247830
       4040.4200      0.44149280
       4041.8900      0.44713170
       4043.3600      0.48891710
       4044.8300      0.52457950
       4046.3000      0.39054520
       4047.7700      0.47021760
       4049.2400      0.61778280
       4050.7100      0.67892360
       4052.1800      0.51854850
       4053.6500      0.47101110
       4055.1200      0.47386450
       4056.5900      0.49039350
       4058.0601      0.39532410
       4059.5300      0.36442030
       4061.0000      0.42134590
       4062.4700      0.39959240
       4063.9400      0.37584570
       4065.4100      0.48651830
       4066.8800      0.47283730
       4068.3500      0.34763900
       4069.8200      0.35723210
       4071.2900      0.49909570
       4072.7600      0.63252220
       4074.2300      0.49648570
       4075.7000      0.33244790
       4077.1700      0.41393380
       4078.6400      0.41656540
       4080.1100      0.26667960
       4081.5800      0.33635440
       4083.0500      0.42871610
       4084.5200      0.39316260
       4085.9900      0.42345630
       4087.4600      0.37467120
       4088.9300      0.28638060
       4090.4000      0.37247160
       4091.8700      0.33025290
       4093.3400      0.28516870
       4094.8100      0.32311950
       4096.2800      0.28399910
       4097.7500      0.39560740
       4099.2200      0.50977130
       4100.6900      0.46611500
       4102.1600      0.33346880
       4103.6300      0.30532400
       4105.1000      0.28879900
       4106.5700      0.23672740
       4108.0400      0.32504820
       4109.5100      0.45251330
       4110.9800      0.41285040
       4112.4500      0.36026350
       4113.9200      0.39968560
       4115.3900      0.29435810
       4116.8600      0.21057360
       4118.3300      0.31924780
       4119.8000      0.29315260
       4121.2700      0.22574710
       4122.7400      0.25682910
       4124.2100      0.25922840
       4125.6800      0.31278090
       4127.1500      0.33401570
       4128.6200      0.33128880
       4130.0900      0.37601230
       4131.5600      0.41546770
       4133.0300      0.39215340
       4134.5000      0.28217750
       4135.9700      0.28677640
       4137.4400      0.31720130
       4138.9100      0.32955830
       4140.3800      0.34119950
       4141.8500      0.32613970
       4143.3200      0.31112050
       4144.7900      0.36598520
       4146.2600      0.39055220
       4147.7300      0.38124560
       4149.2000      0.25350100
       4150.6700      0.32980180
       4152.1400      0.35039970
       4153.6100      0.30632850
       4155.0800      0.25814530
       4156.5500      0.26003790
       4158.0200      0.29159980
       4159.4900      0.28117860
       4160.9600      0.23496140
       4162.4300      0.20740770
       4163.9000      0.18923430
       4165.3700      0.23997900
       4166.8400      0.28906480
       4168.3100      0.29734790
       4169.7800      0.31382810
       4171.2500      0.33744890
       4172.7200      0.25785040
       4174.1900      0.23642680
       4175.6600      0.27828910
       4177.1300      0.23543930
       4178.6000      0.23600650
       4180.0700      0.24263600
       4181.5400      0.25283290
       4183.0100      0.25049100
       4184.4800      0.25562990
       4185.9500      0.28268720
       4187.4200      0.26531410
       4188.8900      0.26251920
       4190.3600      0.28030070
       4191.8300      0.24324750
       4193.3000      0.29591130
       4194.7700      0.27172920
       4196.2400      0.25682740
       4197.7100      0.22600230
       4199.1800      0.28581650
       4200.6500      0.20191260
       4202.1200      0.18056470
       4203.5900      0.27249520
       4205.0600      0.23472640
       4206.5300      0.29709370
       4208.0000      0.29059830
       4209.4700      0.23418610
       4210.9400      0.22593870
       4212.4100      0.25163450
       4213.8800      0.27614900
       4215.3500      0.29636130
       4216.8200      0.30355830
       4218.2900      0.26382640
       4219.7600      0.27559450
       4221.2300      0.28337910
       4222.7000      0.30337930
       4224.1700      0.26145790
       4225.6400      0.24777690
       4227.1100      0.22026620
       4228.5800      0.26117530
       4230.0500      0.25113710
       4231.5200      0.28348960
       4232.9900      0.20774400
       4234.4600      0.20474990
       4235.9300      0.24252470
       4237.4000      0.24909780
       4238.8700      0.32406010
       4240.3400      0.33909880
       4241.8100      0.26066880
       4243.2800      0.24991020
       4244.7500      0.26063020
       4246.2200      0.26420940
       4247.6900      0.17115820
       4249.1600      0.18890620
       4250.6300      0.27831770
       4252.1000      0.25900650
       4253.5700      0.26324010
       4255.0400      0.30415080
       4256.5100      0.30949090
       4257.9800      0.34567990
       4259.4500      0.30370860
       4260.9200      0.26354130
       4262.3900      0.27266110
       4263.8600      0.30289400
       4265.3300      0.28633120
       4266.8000      0.29988360
       4268.2700      0.32519990
       4269.7400      0.27816760
       4271.2100      0.27893730
       4272.6800      0.29356380
       4274.1500      0.27474030
       4275.6200      0.24585530
       4277.0900      0.27080750
       4278.5600      0.32209600
       4280.0300      0.31803890
       4281.5000      0.32223870
       4282.9700      0.30785030
       4284.4400      0.27861290
       4285.9100      0.29811940
       4287.3800      0.28841800
       4288.8500      0.25768540
       4290.3200      0.29043280
       4291.7900      0.33952920
       4293.2600      0.32224290
       4294.7300      0.27678030
       4296.2000      0.27694430
       4297.6700      0.26916670
       4299.1400      0.28337610
       4300.6100      0.33306800
       4302.0800      0.29066080
       4303.5500      0.25433200
       4305.0200      0.27069410
       4306.4900      0.27918460
       4307.9600      0.27504350
       4309.4300      0.28202580
       4310.9000      0.28873570
       4312.3700      0.25582110
       4313.8400      0.20733240
       4315.3100      0.21482210
       4316.7800      0.23414680
       4318.2500      0.32775000
       4319.7200      0.31504150
       4321.1900      0.24819310
       4322.6600      0.26449530
       4324.1300      0.28412090
       4325.6000      0.26926610
       4327.0700      0.27182740
       4328.5400      0.26262830
       4330.0100      0.22122130
       4331.4800      0.30403310
       4332.9500      0.31449850
       4334.4200      0.31057830
       4335.8900      0.28366650
       4337.3600      0.29253270
       4338.8300      0.23655500
       4340.3000      0.26494920
       4341.7700      0.26353130
       4343.2400      0.25607420
       4344.7100      0.27958920
       4346.1800      0.28762870
       4347.6500      0.26131080
       4349.1200      0.27301080
       4350.5900      0.30759960
       4352.0600      0.25904750
       4353.5300      0.21356520
       4355.0000      0.21707380
       4356.4700      0.29842530
       4357.9400      0.32684520
       4359.4100      0.33453650
       4360.8800      0.38250770
       4362.3500      0.35611450
       4363.8200      0.27643120
       4365.2900      0.25085690
       4366.7600      0.31619820
       4368.2300      0.32141290
       4369.7000      0.31492980
       4371.1701      0.30037930
       4372.6400      0.28586930
       4374.1100      0.30280790
       4375.5800      0.28969520
       4377.0500      0.31153260
       4378.5200      0.37087990
       4379.9900      0.32053030
       4381.4600      0.33320510
       4382.9300      0.30608840
       4384.4000      0.32149660
       4385.8700      0.33509340
       4387.3400      0.32571260
       4388.8100      0.29297600
       4390.2800      0.27100670
       4391.7500      0.31580000
       4393.2200      0.29534090
       4394.6900      0.31271710
       4396.1600      0.37419200
       4397.6300      0.38733730
       4399.1000      0.32937390
       4400.5700      0.27910570
       4402.0400      0.30163270
       4403.5100      0.33265140
       4404.9800      0.34147160
       4406.4500      0.31271760
       4407.9200      0.22660470
       4409.3900      0.27268730
       4410.8600      0.31373030
       4412.3300      0.29548340
       4413.8000      0.27594130
       4415.2700      0.31538270
       4416.7400      0.25758400
       4418.2100      0.28425930
       4419.6800      0.28003580
       4421.1500      0.21211540
       4422.6200      0.23115790
       4424.0900      0.32759970
       4425.5600      0.26712560
       4427.0300      0.28421550
       4428.5000      0.28431900
       4429.9700      0.27422400
       4431.4400      0.24629310
       4432.9100      0.23769640
       4434.3800      0.25638080
       4435.8500      0.26675350
       4437.3200      0.23773940
       4438.7900      0.28036100
       4440.2600      0.26131380
       4441.7300      0.25352470
       4443.2000      0.23983610
       4444.6700      0.25631270
       4446.1400      0.25767610
       4447.6100      0.33091170
       4449.0800      0.29899230
       4450.5500      0.24699240
       4452.0200      0.29562350
       4453.4900      0.29738180
       4454.9600      0.26476020
       4456.4300      0.27783790
       4457.9000      0.27186590
       4459.3700      0.27932930
       4460.8400      0.32324920
       4462.3100      0.29223650
       4463.7800      0.27398450
       4465.2500      0.31711480
       4466.7200      0.29775670
       4468.1900      0.24702540
       4469.6600      0.28014450
       4471.1300      0.28039020
       4472.6000      0.25781780
       4474.0700      0.26775680
       4475.5400      0.27713870
       4477.0100      0.29175160
       4478.4800      0.30888320
       4479.9500      0.30132030
       4481.4200      0.30440160
       4482.8900      0.29925340
       4484.3600      0.30776550
       4485.8300      0.28821410
       4487.3000      0.30787620
       4488.7700      0.30762190
       4490.2400      0.36634270
       4491.7100      0.35995750
       4493.1800      0.30407230
       4494.6500      0.34670670
       4496.1200      0.35336200
       4497.5900      0.32991620
       4499.0600      0.31059790
       4500.5300      0.32254000
       4502.0000      0.32950510
       4503.4700      0.33969550
       4504.9400      0.32251420
       4506.4100      0.35689330
       4507.8800      0.36288630
       4509.3500      0.35908930
       4510.8200      0.36442570
       4512.2900      0.39245380
       4513.7600      0.42895460
       4515.2300      0.42920140
       4516.7000      0.42891940
       4518.1700      0.41450930
       4519.6400      0.44882350
       4521.1100      0.46310900
       4522.5800      0.41521940
       4524.0500      0.39155960
       4525.5200      0.38710490
       4526.9900      0.38321520
       4528.4600      0.42989560
       4529.9300      0.46822350
       4531.4000      0.46767340
       4532.8700      0.47314650
       4534.3400      0.47496750
       4535.8100      0.46940530
       4537.2800      0.47253270
       4538.7500      0.51574640
       4540.2200      0.50906590
       4541.6900      0.50098680
       4543.1600      0.48245160
       4544.6300      0.51055100
       4546.1000      0.52635680
       4547.5700      0.53017770
       4549.0400      0.52948740
       4550.5100      0.51902680
       4551.9800      0.51236900
       4553.4500      0.51513050
       4554.9200      0.52595880
       4556.3900      0.52127730
       4557.8600      0.52769120
       4559.3300      0.52613000
       4560.8000      0.53748150
       4562.2700      0.55882640
       4563.7400      0.58339690
       4565.2100      0.56566400
       4566.6800      0.53490380
       4568.1500      0.57901260
       4569.6200      0.62960590
       4571.0900      0.57031490
       4572.5600      0.59507320
       4574.0300      0.61836880
       4575.5000      0.58953710
       4576.9700      0.61299830
       4578.4400      0.61227950
       4579.9100      0.61485580
       4581.3800      0.60115730
       4582.8500      0.55113540
       4584.3200      0.59070750
       4585.7900      0.60079860
       4587.2600      0.62455360
       4588.7300      0.61288070
       4590.2000      0.57519940
       4591.6700      0.67641130
       4593.1400      0.66023110
       4594.6100      0.60792150
       4596.0800      0.63273350
       4597.5500      0.63866410
       4599.0200      0.59260730
       4600.4900      0.60859420
       4601.9600      0.59968050
       4603.4300      0.60175550
       4604.9000      0.65548120
       4606.3700      0.65880020
       4607.8400      0.60548630
       4609.3100      0.60643160
       4610.7800      0.62156170
       4612.2500      0.58635360
       4613.7200      0.59136750
       4615.1900      0.62994590
       4616.6600      0.63861660
       4618.1300      0.63514080
       4619.6000      0.60654600
       4621.0700      0.58638100
       4622.5400      0.61605480
       4624.0100      0.62321230
       4625.4800      0.63183990
       4626.9500      0.61863030
       4628.4200      0.68966250
       4629.8900      0.67791130
       4631.3600      0.65417750
       4632.8300      0.63644420
       4634.3000      0.64727610
       4635.7700      0.61560980
       4637.2400      0.65401710
       4638.7100      0.70260140
       4640.1800      0.68691750
       4641.6500      0.62414050
       4643.1200      0.64024360
       4644.5900      0.63140360
       4646.0600      0.66377740
       4647.5300      0.65649740
       4649.0000      0.60903230
       4650.4700      0.56437760
       4651.9400      0.59494700
       4653.4100      0.59646700
       4654.8800      0.60319330
       4656.3500      0.64651970
       4657.8200      0.61499020
       4659.2900      0.57868530
       4660.7600      0.61320820
       4662.2300      0.63755850
       4663.7000      0.56425820
       4665.1700      0.58664750
       4666.6400      0.66227250
       4668.1100      0.59141770
       4669.5800      0.57502880
       4671.0500      0.55339720
       4672.5200      0.57826450
       4673.9900      0.59931990
       4675.4600      0.59253510
       4676.9300      0.58957170
       4678.4000      0.59981110
       4679.8700      0.57201760
       4681.3400      0.57696310
       4682.8100      0.60062800
       4684.2801      0.52566960
       4685.7500      0.54149480
       4687.2200      0.51623020
       4688.6900      0.54475150
       4690.1600      0.57112500
       4691.6300      0.54647520
       4693.1000      0.56244960
       4694.5700      0.51791000
       4696.0400      0.56108410
       4697.5100      0.59692880
       4698.9800      0.52059080
       4700.4500      0.53425550
       4701.9200      0.55533310
       4703.3900      0.51769270
       4704.8600      0.48789070
       4706.3300      0.49778730
       4707.8000      0.49569370
       4709.2700      0.58224440
       4710.7400      0.48500710
       4712.2100      0.49355020
       4713.6800      0.49990320
       4715.1500      0.47035690
       4716.6200      0.51003230
       4718.0900      0.46777060
       4719.5600      0.48913380
       4721.0300      0.47955450
       4722.5000      0.49518890
       4723.9700      0.48354620
       4725.4400      0.45458220
       4726.9100      0.47353900
       4728.3800      0.48798350
       4729.8500      0.46908220
       4731.3200      0.47533250
       4732.7900      0.44543720
       4734.2600      0.48904250
       4735.7300      0.50869270
       4737.2000      0.44819840
       4738.6700      0.48689230
       4740.1400      0.49076040
       4741.6100      0.44320930
       4743.0800      0.44841970
       4744.5500      0.46514510
       4746.0200      0.44722310
       4747.4900      0.44972630
       4748.9600      0.45465520
       4750.4300      0.48576750
       4751.9000      0.44592600
       4753.3700      0.46057150
       4754.8400      0.43979490
       4756.3100      0.44196880
       4757.7800      0.45455730
       4759.2500      0.42659470
       4760.7200      0.47835800
       4762.1900      0.44761190
       4763.6600      0.41720190
       4765.1300      0.43181600
       4766.6000      0.46970590
       4768.0700      0.46272490
       4769.5400      0.49340860
       4771.0100      0.46553160
       4772.4800      0.43112260
       4773.9500      0.42084090
       4775.4200      0.45732580
       4776.8900      0.42229430
       4778.3600      0.41406610
       4779.8300      0.45916530
       4781.3000      0.44653420
       4782.7700      0.38894980
       4784.2400      0.38370070
       4785.7100      0.42901370
       4787.1800      0.36807980
       4788.6500      0.41153670
       4790.1200      0.41093790
       4791.5900      0.41406530
       4793.0600      0.37443840
       4794.5300      0.35170060
       4796.0000      0.35828850
       4797.4700      0.37043980
       4798.9400      0.41370720
       4800.4100      0.38991740
       4801.8800      0.43238080
       4803.3500      0.41269110
       4804.8200      0.32976470
       4806.2900      0.36263930
       4807.7600      0.34609490
       4809.2300      0.33952570
       4810.7000      0.35521860
       4812.1700      0.33512860
       4813.6400      0.33010210
       4815.1100      0.38209810
       4816.5800      0.32652520
       4818.0500      0.33807720
       4819.5200      0.35211920
       4820.9900      0.36132860
       4822.4600      0.35918310
       4823.9300      0.37360280
       4825.4000      0.34887100
       4826.8700      0.34625150
       4828.3400      0.34516630
       4829.8100      0.31022050
       4831.2800      0.33940360
       4832.7500      0.37937340
       4834.2200      0.39352100
       4835.6900      0.34150650
       4837.1600      0.38256160
       4838.6300      0.33642820
       4840.1000      0.34716880
       4841.5700      0.32004890
       4843.0400      0.35741670
       4844.5100      0.41354240
       4845.9800      0.38754190
       4847.4500      0.36583180
       4848.9200      0.37857650
       4850.3900      0.39824180
       4851.8600      0.34492920
       4853.3300      0.34570440
       4854.8000      0.39909220
       4856.2700      0.41985460
       4857.7400      0.40251090
       4859.2100      0.35522270
       4860.6800      0.38120510
       4862.1500      0.39811750
       4863.6200      0.37540860
       4865.0900      0.40034150
       4866.5600      0.34727080
       4868.0300      0.40433600
       4869.5000      0.42357020
       4870.9700      0.41078770
       4872.4400      0.36860430
       4873.9100      0.39319880
       4875.3800      0.39623290
       4876.8500      0.40915190
       4878.3200      0.40319420
       4879.7900      0.44600980
       4881.2600      0.42274840
       4882.7300      0.42506510
       4884.2000      0.46573740
       4885.6700      0.50452410
       4887.1400      0.46033040
       4888.6100      0.43422140
       4890.0800      0.42194550
       4891.5500      0.40011150
       4893.0200      0.41288240
       4894.4900      0.43569340
       4895.9600      0.40409490
       4897.4300      0.39530750
       4898.9000      0.38986340
       4900.3700      0.39894520
       4901.8400      0.43409280
       4903.3100      0.44156640
       4904.7800      0.44519830
       4906.2500      0.40697580
       4907.7200      0.44272160
       4909.1900      0.39949700
       4910.6600      0.37212850
       4912.1300      0.38339110
       4913.6000      0.39526300
       4915.0700      0.38580100
       4916.5400      0.37073750
       4918.0100      0.40222840
       4919.4800      0.41762130
       4920.9500      0.41366190
       4922.4200      0.41412480
       4923.8900      0.41675530
       4925.3600      0.36478220
       4926.8300      0.36981510
       4928.3000      0.41606870
       4929.7700      0.37280910
       4931.2400      0.41659860
       4932.7100      0.36763810
       4934.1800      0.36786340
       4935.6500      0.42669590
       4937.1200      0.44332640
       4938.5900      0.39098890
       4940.0600      0.38788550
       4941.5300      0.39982750
       4943.0000      0.43182140
       4944.4700      0.42169630
       4945.9400      0.36856030
       4947.4100      0.37497950
       4948.8800      0.40949930
       4950.3500      0.37913570
       4951.8200      0.44914720
       4953.2900      0.46705450
       4954.7600      0.43980770
       4956.2300      0.44084190
       4957.7000      0.43484360
       4959.1700      0.47663260
       4960.6400      0.42480120
       4962.1100      0.44367380
       4963.5800      0.48102480
       4965.0500      0.47453040
       4966.5200      0.44285400
       4967.9900      0.52230810
       4969.4600      0.55127430
       4970.9300      0.54366870
       4972.4000      0.48552880
       4973.8700      0.49705230
       4975.3400      0.51099620
       4976.8100      0.52254610
       4978.2800      0.50451480
       4979.7500      0.54640760
       4981.2200      0.57501490
       4982.6900      0.57443930
       4984.1600      0.59033790
       4985.6300      0.59582780
       4987.1000      0.57382690
       4988.5700      0.60340870
       4990.0400      0.55483420
       4991.5100      0.57421120
       4992.9800      0.57559950
       4994.4500      0.58222110
       4995.9200      0.59069950
       4997.3901      0.60045430
       4998.8600      0.60916510
       5000.3300      0.58499960
       5001.8000      0.59450890
       5003.2700      0.56374340
       5004.7400      0.54863810
       5006.2100      0.56028660
       5007.6800      0.54267830
       5009.1500      0.50350340
       5010.6200      0.52751180
       5012.0900      0.53383200
       5013.5600      0.54706910
       5015.0300      0.53117700
       5016.5000      0.53440680
       5017.9700      0.51140710
       5019.4400      0.48476780
       5020.9100      0.48229200
       5022.3800      0.45438070
       5023.8500      0.47376340
       5025.3200      0.46092710
       5026.7900      0.49994490
       5028.2600      0.46834830
       5029.7300      0.52281930
       5031.2000      0.51487920
       5032.6700      0.49060500
       5034.1400      0.46034130
       5035.6100      0.39349730
       5037.0800      0.41235710
       5038.5500      0.38658800
       5040.0200      0.33128320
       5041.4900      0.37229040
       5042.9600      0.37457920
       5044.4300      0.37835840
       5045.9000      0.39507540
       5047.3700      0.35822780
       5048.8400      0.34458060
       5050.3100      0.34472720
       5051.7800      0.36584810
       5053.2500      0.34980280
       5054.7200      0.34443200
       5056.1900      0.34597290
       5057.6600      0.35132880
       5059.1300      0.33629350
       5060.6000      0.34752220
       5062.0700      0.30099500
       5063.5400      0.29551290
       5065.0100      0.30605700
       5066.4800      0.32461080
       5067.9500      0.34417900
       5069.4200      0.32495810
       5070.8900      0.26718260
       5072.3600      0.34209860
       5073.8300      0.35933300
       5075.3000      0.33165510
       5076.7700      0.32011430
       5078.2400      0.31431800
       5079.7100      0.30058680
       5081.1800      0.31947340
       5082.6500      0.33852260
       5084.1200      0.32160490
       5085.5900      0.30914740
       5087.0600      0.34891410
       5088.5300      0.32555990
       5090.0000      0.33287520
       5091.4700      0.34139210
       5092.9400      0.38570640
       5094.4100      0.37269570
       5095.8800      0.31168670
       5097.3500      0.30600270
       5098.8200      0.32816820
       5100.2900      0.34994000
       5101.7600      0.35410800
       5103.2300      0.36714720
       5104.7000      0.36667610
       5106.1700      0.36056630
       5107.6400      0.33752060
       5109.1100      0.33448810
       5110.5800      0.35340790
       5112.0500      0.36845170
       5113.5200      0.43141600
       5114.9900      0.43570150
       5116.4600      0.39062550
       5117.9300      0.36039830
       5119.4000      0.38649080
       5120.8700      0.38291540
       5122.3400      0.40327800
       5123.8100      0.43511480
       5125.2800      0.43865330
       5126.7500      0.40664310
       5128.2200      0.36970290
       5129.6900      0.39396570
       5131.1600      0.39330310
       5132.6300      0.40696470
       5134.1000      0.45613990
       5135.5700      0.44826630
       5137.0400      0.45367250
       5138.5100      0.44594620
       5139.9800      0.42373450
       5141.4500      0.44069850
       5142.9200      0.44684330
       5144.3900      0.44764980
       5145.8600      0.45812780
       5147.3300      0.45637600
       5148.8000      0.41489550
       5150.2700      0.44065790
       5151.7400      0.46795230
       5153.2100      0.45528250
       5154.6800      0.44236100
       5156.1500      0.43799490
       5157.6200      0.46577340
       5159.0900      0.46369650
       5160.5600      0.44358890
       5162.0300      0.45187350
       5163.5000      0.46024020
       5164.9700      0.48455560
       5166.4400      0.48541870
       5167.9100      0.45402320
       5169.3800      0.46622890
       5170.8500      0.50158100
       5172.3200      0.48215580
       5173.7900      0.45868180
       5175.2600      0.47267500
       5176.7300      0.48285630
       5178.2000      0.48598730
       5179.6700      0.48385700
       5181.1400      0.51472620
       5182.6100      0.50404370
       5184.0800      0.47194820
       5185.5500      0.51141860
       5187.0200      0.52859050
       5188.4900      0.47350530
       5189.9600      0.48027450
       5191.4300      0.50601620
       5192.9000      0.48671710
       5194.3700      0.48633970
       5195.8400      0.49131360
       5197.3100      0.49672400
       5198.7800      0.51007500
       5200.2500      0.51426770
       5201.7200      0.47028420
       5203.1900      0.49367020
       5204.6600      0.50026990
       5206.1300      0.49342800
       5207.6000      0.49438300
       5209.0700      0.48208340
       5210.5400      0.50671450
       5212.0100      0.49079990
       5213.4800      0.50405750
       5214.9500      0.49716880
       5216.4200      0.47444830
       5217.8900      0.50403110
       5219.3600      0.55119230
       5220.8300      0.50598340
       5222.3000      0.52251980
       5223.7700      0.52405730
       5225.2400      0.47447550
       5226.7100      0.51906910
       5228.1800      0.54126660
       5229.6500      0.52779880
       5231.1200      0.54056890
       5232.5900      0.53566700
       5234.0600      0.50111930
       5235.5300      0.50164420
       5237.0000      0.55210160
       5238.4700      0.56846580
       5239.9400      0.53107740
       5241.4100      0.53001370
       5242.8800      0.56796490
       5244.3500      0.53622220
       5245.8200      0.56112350
       5247.2900      0.58288300
       5248.7600      0.57736960
       5250.2300      0.55071960
       5251.7000      0.58757070
       5253.1700      0.59662220
       5254.6400      0.53959320
       5256.1100      0.55476710
       5257.5800      0.56771120
       5259.0500      0.57490580
       5260.5200      0.58216910
       5261.9900      0.56062630
       5263.4600      0.55652620
       5264.9300      0.57199470
       5266.4000      0.56630550
       5267.8700      0.54174980
       5269.3400      0.53802500
       5270.8100      0.55749610
       5272.2800      0.55562070
       5273.7500      0.52641920
       5275.2200      0.52997630
       5276.6900      0.55598120
       5278.1600      0.56768520
       5279.6300      0.59320880
       5281.1000      0.63542370
       5282.5700      0.61319490
       5284.0400      0.58762780
       5285.5100      0.56693450
       5286.9800      0.55383590
       5288.4500      0.55690710
       5289.9200      0.55942230
       5291.3900      0.58852740
       5292.8600      0.63003720
       5294.3300      0.64312950
       5295.8000      0.62278690
       5297.2700      0.58554480
       5298.7400      0.57953960
       5300.2100      0.61831220
       5301.6800      0.62069300
       5303.1500      0.62092130
       5304.6200      0.62939830
       5306.0900      0.63197180
       5307.5600      0.61949470
       5309.0300      0.61260690
       5310.5001      0.63298020
       5311.9700      0.61665450
       5313.4400      0.59121730
       5314.9100      0.61703710
       5316.3800      0.61671610
       5317.8500      0.61395110
       5319.3200      0.62157540
       5320.7900      0.58141750
       5322.2600      0.60018910
       5323.7300      0.61147060
       5325.2000      0.58467590
       5326.6700      0.59393640
       5328.1400      0.60755200
       5329.6100      0.61580450
       5331.0800      0.62379250
       5332.5500      0.65244340
       5334.0200      0.67034090
       5335.4900      0.65001600
       5336.9600      0.62560540
       5338.4300      0.63746900
       5339.9000      0.67735680
       5341.3700      0.65726750
       5342.8400      0.61434870
       5344.3100      0.62213440
       5345.7800      0.64246530
       5347.2500      0.61511340
       5348.7200      0.58932320
       5350.1900      0.60943950
       5351.6600      0.62431290
       5353.1300      0.61479690
       5354.6000      0.59020950
       5356.0700      0.60726050
       5357.5400      0.65795640
       5359.0100      0.64175520
       5360.4800      0.61081700
       5361.9500      0.64191970
       5363.4200      0.66092060
       5364.8900      0.64807570
       5366.3600      0.64245090
       5367.8300      0.62811690
       5369.3000      0.63830280
       5370.7700      0.61880790
       5372.2400      0.60187530
       5373.7100      0.61650190
       5375.1800      0.61069820
       5376.6500      0.61241730
       5378.1200      0.62737810
       5379.5900      0.65414730
       5381.0600      0.64737060
       5382.5300      0.64357220
       5384.0000      0.63293300
       5385.4700      0.64116320
       5386.9400      0.64163080
       5388.4100      0.64111580
       5389.8800      0.66693780
       5391.3500      0.66335450
       5392.8200      0.64849070
       5394.2900      0.64740300
       5395.7600      0.65134350
       5397.2300      0.65283950
       5398.7000      0.64980940
       5400.1700      0.65084650
       5401.6400      0.65090330
       5403.1100      0.66592460
       5404.5800      0.68266220
       5406.0500      0.66865410
       5407.5200      0.67085560
       5408.9900      0.65621790
       5410.4600      0.63204060
       5411.9300      0.65735550
       5413.4000      0.64086850
       5414.8700      0.62768020
       5416.3400      0.61910390
       5417.8100      0.59575750
       5419.2800      0.59256010
       5420.7500      0.61894000
       5422.2200      0.61185940
       5423.6900      0.57315870
       5425.1600      0.58205230
       5426.6300      0.62368650
       5428.1000      0.61658550
       5429.5700      0.58433990
       5431.0400      0.57005340
       5432.5100      0.55835440
       5433.9800      0.52960850
       5435.4500      0.52802410
       5436.9200      0.53964190
       5438.3900      0.54025000
       5439.8600      0.56168600
       5441.3300      0.53591220
       5442.8000      0.51605120
       5444.2700      0.52744830
       5445.7400      0.50106080
       5447.2100      0.51139710
       5448.6800      0.53181360
       5450.1500      0.51108720
       5451.6200      0.52615320
       5453.0900      0.48804040
       5454.5600      0.48204500
       5456.0300      0.50539290
       5457.5000      0.50174660
       5458.9700      0.47754370
       5460.4400      0.43788950
       5461.9100      0.48511260
       5463.3800      0.49805690
       5464.8500      0.50210290
       5466.3200      0.51082960
       5467.7900      0.51010180
       5469.2600      0.51696770
       5470.7300      0.49237290
       5472.2000      0.49969070
       5473.6700      0.50591340
       5475.1400      0.52679770
       5476.6100      0.52317800
       5478.0800      0.49983120
       5479.5500      0.51766960
       5481.0200      0.55217500
       5482.4900      0.54548710
       5483.9600      0.58029690
       5485.4300      0.60280760
       5486.9000      0.57729320
       5488.3700      0.55513800
       5489.8400      0.58772520
       5491.3100      0.60414060
       5492.7800      0.60650770
       5494.2500      0.58701780
       5495.7200      0.61877780
       5497.1900      0.63375000
       5498.6600      0.64536730
       5500.1300      0.67729960
       5501.6000      0.70544680
       5503.0700      0.68990810
       5504.5400      0.68254940
       5506.0100      0.70941750
       5507.4800      0.74217560
       5508.9500      0.75727910
       5510.4200      0.73766530
       5511.8900      0.76389650
       5513.3600      0.78291490
       5514.8300      0.80706270
       5516.3000      0.84289720
       5517.7700      0.79404810
       5519.2400      0.81404650
       5520.7100      0.88037730
       5522.1800      0.92040600
       5523.6500      0.87739470
       5525.1200      0.81749350
       5526.5900      0.84391840
       5528.0600      0.86861100
       5529.5300      0.86343250
       5531.0000      0.86928660
       5532.4700      0.89719730
       5533.9400      0.90975960
       5535.4100      0.91999330
       5536.8800      0.91914470
       5538.3500      0.90110950
       5539.8200      0.89316650
       5541.2900      0.88667420
       5542.7600      0.91952190
       5544.2300      0.91080020
       5545.7000      0.88162510
       5547.1700      0.88634850
       5548.6400      0.88345210
       5550.1100      0.88489810
       5551.5800      0.89323570
       5553.0500      0.87250440
       5554.5200      0.85701660
       5555.9900      0.86577710
       5557.4600      0.83259150
       5558.9300      0.82230700
       5560.4000      0.80838970
       5561.8700      0.78078550
       5563.3400      0.78018280
       5564.8100      0.80011230
       5566.2800      0.82100490
       5567.7500      0.79489120
       5569.2200      0.75463270
       5570.6900      0.72960050
       5572.1600      0.73075150
       5573.6300      0.73909320
       5575.1000      0.67770750
       5576.5700      0.69634010
       5578.0400      0.86012640
       5579.5100      0.85192370
       5580.9800      0.67590140
       5582.4500      0.57497670
       5583.9200      0.61476740
       5585.3900      0.61668460
       5586.8600      0.57384150
       5588.3300      0.55214270
       5589.8000      0.58993970
       5591.2700      0.60015120
       5592.7400      0.56322730
       5594.2100      0.58150830
       5595.6800      0.58675440
       5597.1500      0.54759900
       5598.6200      0.53827610
       5600.0900      0.55858750
       5601.5600      0.55217550
       5603.0300      0.52092830
       5604.5000      0.53122660
       5605.9700      0.53738300
       5607.4400      0.53812440
       5608.9100      0.55546340
       5610.3800      0.54324380
       5611.8500      0.54022370
       5613.3200      0.53436410
       5614.7900      0.51865490
       5616.2600      0.52978640
       5617.7300      0.53080240
       5619.2000      0.53778580
       5620.6700      0.56407560
       5622.1400      0.57012110
       5623.6099      0.55198190
       5625.0800      0.55657610
       5626.5500      0.56872960
       5628.0200      0.53631330
       5629.4900      0.54904530
       5630.9600      0.57921540
       5632.4300      0.54996710
       5633.9000      0.56282000
       5635.3700      0.61107120
       5636.8400      0.61694220
       5638.3100      0.59371950
       5639.7800      0.58999430
       5641.2500      0.60672520
       5642.7200      0.62229480
       5644.1900      0.64405680
       5645.6600      0.63519290
       5647.1300      0.60339960
       5648.6000      0.62205270
       5650.0700      0.63481610
       5651.5400      0.59171640
       5653.0100      0.58171940
       5654.4800      0.60486450
       5655.9500      0.59520940
       5657.4200      0.57726310
       5658.8900      0.60378840
       5660.3600      0.62177760
       5661.8300      0.59880790
       5663.3000      0.58489850
       5664.7700      0.57023170
       5666.2400      0.53695400
       5667.7100      0.50850430
       5669.1800      0.49539100
       5670.6500      0.48535450
       5672.1200      0.48000340
       5673.5900      0.49808560
       5675.0600      0.49499700
       5676.5300      0.45658780
       5678.0000      0.40945240
       5679.4700      0.38039770
       5680.9400      0.37286710
       5682.4100      0.39134860
       5683.8800      0.41622950
       5685.3500      0.41186180
       5686.8200      0.39644560
       5688.2900      0.35453680
       5689.7600      0.31935210
       5691.2300      0.33027870
       5692.7000      0.37094640
       5694.1700      0.37307980
       5695.6400      0.33801880
       5697.1100      0.32198860
       5698.5800      0.33685510
       5700.0500      0.34626320
       5701.5200      0.32309010
       5702.9900      0.30901480
       5704.4600      0.33970070
       5705.9300      0.35233850
       5707.4000      0.32019230
       5708.8700      0.30907900
       5710.3400      0.31021300
       5711.8100      0.31413030
       5713.2800      0.31269010
       5714.7500      0.28927820
       5716.2200      0.27882680
       5717.6900      0.30922340
       5719.1600      0.29549100
       5720.6300      0.26095320
       5722.1000      0.27488470
       5723.5700      0.28884220
       5725.0400      0.29212710
       5726.5100      0.31550430
       5727.9800      0.32489840
       5729.4500      0.30675470
       5730.9200      0.30510730
       5732.3900      0.30828140
       5733.8600      0.31621080
       5735.3300      0.30051880
       5736.8000      0.30114680
       5738.2700      0.31185940
       5739.7400      0.29826840
       5741.2100      0.28552390
       5742.6800      0.27649590
       5744.1500      0.26607390
       5745.6200      0.27016300
       5747.0900      0.28571260
       5748.5600      0.27893760
       5750.0300      0.25994700
       5751.5000      0.25449770
       5752.9700      0.24264780
       5754.4400      0.25589220
       5755.9100      0.25578280
       5757.3800      0.25196620
       5758.8500      0.26337580
       5760.3200      0.24808470
       5761.7900      0.25491450
       5763.2600      0.24472540
       5764.7300      0.26137700
       5766.2000      0.26557250
       5767.6700      0.24451090
       5769.1400      0.28174530
       5770.6100      0.29186060
       5772.0800      0.24945520
       5773.5500      0.24698750
       5775.0200      0.28884770
       5776.4900      0.28542230
       5777.9600      0.24686470
       5779.4300      0.25613780
       5780.9000      0.26929010
       5782.3700      0.25311350
       5783.8400      0.24290830
       5785.3100      0.24790300
       5786.7800      0.25842370
       5788.2500      0.24336310
       5789.7200      0.22328040
       5791.1900      0.23514360
       5792.6600      0.26995630
       5794.1300      0.27446860
       5795.6000      0.26870750
       5797.0700      0.27069700
       5798.5400      0.26491330
       5800.0100      0.24936840
       5801.4800      0.24347380
       5802.9500      0.27672670
       5804.4200      0.28831850
       5805.8900      0.26757430
       5807.3600      0.25503940
       5808.8300      0.25404450
       5810.3000      0.26757570
       5811.7700      0.27541670
       5813.2400      0.26526100
       5814.7100      0.27400690
       5816.1800      0.28801570
       5817.6500      0.29021550
       5819.1200      0.30270880
       5820.5900      0.31412060
       5822.0600      0.30785040
       5823.5300      0.31409960
       5825.0000      0.31784660
       5826.4700      0.30293360
       5827.9400      0.30153340
       5829.4100      0.31678920
       5830.8800      0.33131990
       5832.3500      0.35605330
       5833.8200      0.36491560
       5835.2900      0.34989100
       5836.7600      0.35639990
       5838.2300      0.36980840
       5839.7000      0.40738670
       5841.1700      0.42810980
       5842.6400      0.40784780
       5844.1100      0.41313340
       5845.5800      0.42050600
       5847.0500      0.42836430
       5848.5200      0.43174800
       5849.9900      0.43626820
       5851.4600      0.45698220
       5852.9300      0.47022050
       5854.4000      0.46206130
       5855.8700      0.44424100
       5857.3400      0.46527010
       5858.8100      0.50036260
       5860.2800      0.47579520
       5861.7500      0.45061440
       5863.2200      0.47961080
       5864.6900      0.50440140
       5866.1600      0.50901030
       5867.6300      0.55098340
       5869.1000      0.56442880
       5870.5700      0.54955030
       5872.0400      0.56575160
       5873.5100      0.57032390
       5874.9800      0.57342950
       5876.4500      0.58188400
       5877.9200      0.57893740
       5879.3900      0.57851410
       5880.8600      0.58712790
       5882.3300      0.58706060
       5883.8000      0.58475150
       5885.2700      0.58250220
       5886.7400      0.54179750
       5888.2100      0.56678610
       5889.6800      0.60068770
       5891.1500      0.56518860
       5892.6200      0.60351980
       5894.0900      0.62411030
       5895.5600      0.60417850
       5897.0300      0.63585210
       5898.5000      0.63320000
       5899.9700      0.60288950
       5901.4400      0.58972080
       5902.9100      0.59979820
       5904.3800      0.64251350
       5905.8500      0.63818310
       5907.3200      0.62146150
       5908.7900      0.62488990
       5910.2600      0.61641040
       5911.7300      0.62156090
       5913.2000      0.62250640
       5914.6700      0.61543720
       5916.1400      0.60944050
       5917.6100      0.61962230
       5919.0800      0.65801110
       5920.5500      0.63946930
       5922.0200      0.59218860
       5923.4900      0.58907690
       5924.9600      0.58291110
       5926.4300      0.57481020
       5927.9000      0.60331550
       5929.3700      0.61131450
       5930.8400      0.62549010
       5932.3100      0.63058420
       5933.7800      0.62130810
       5935.2500      0.61856750
       5936.7199      0.60985950
       5938.1900      0.62591890
       5939.6600      0.63411270
       5941.1300      0.61375300
       5942.6000      0.59869260
       5944.0700      0.59968260
       5945.5400      0.63907570
       5947.0100      0.63255620
       5948.4800      0.58483030
       5949.9500      0.59677380
       5951.4200      0.60483590
       5952.8900      0.57635130
       5954.3600      0.58117160
       5955.8300      0.60725240
       5957.3000      0.61292390
       5958.7700      0.59269450
       5960.2400      0.61621400
       5961.7100      0.58332610
       5963.1800      0.55940350
       5964.6500      0.61324190
       5966.1200      0.60347860
       5967.5900      0.58505580
       5969.0600      0.59196860
       5970.5300      0.57859250
       5972.0000      0.54106090
       5973.4700      0.55459200
       5974.9400      0.57989060
       5976.4100      0.58394380
       5977.8800      0.58122750
       5979.3500      0.58411040
       5980.8200      0.57607470
       5982.2900      0.56770940
       5983.7600      0.55398740
       5985.2300      0.54905400
       5986.7000      0.56273890
       5988.1700      0.56257350
       5989.6400      0.59007540
       5991.1100      0.56267650
       5992.5800      0.55705300
       5994.0500      0.57167930
       5995.5200      0.58531300
       5996.9900      0.58152190
       5998.4600      0.56345780
       5999.9300      0.55059960
       6001.4000      0.52596790
       6002.8700      0.53771210
       6004.3400      0.54533920
       6005.8100      0.55038950
       6007.2800      0.56928870
       6008.7500      0.55887010
       6010.2200      0.52787320
       6011.6900      0.52119390
       6013.1600      0.51667160
       6014.6300      0.50809660
       6016.1000      0.50158850
       6017.5700      0.51991630
       6019.0400      0.50518260
       6020.5100      0.48572040
       6021.9800      0.47150300
       6023.4500      0.49703150
       6024.9200      0.49972750
       6026.3900      0.50617890
       6027.8600      0.49917660
       6029.3300      0.47952330
       6030.8000      0.47325930
       6032.2700      0.47570620
       6033.7400      0.48511050
       6035.2100      0.49790900
       6036.6800      0.49708320
       6038.1500      0.49663070
       6039.6200      0.47616810
       6041.0900      0.44352440
       6042.5600      0.47494520
       6044.0300      0.46932910
       6045.5000      0.46703450
       6046.9700      0.45595160
       6048.4400      0.43960650
       6049.9100      0.45313100
       6051.3800      0.46529090
       6052.8500      0.44488580
       6054.3200      0.43742780
       6055.7900      0.45982670
       6057.2600      0.45366730
       6058.7300      0.43086040
       6060.2000      0.41993000
       6061.6700      0.42160860
       6063.1400      0.43017000
       6064.6100      0.43475660
       6066.0800      0.45080260
       6067.5500      0.46750540
       6069.0200      0.45314280
       6070.4900      0.45055620
       6071.9600      0.46347130
       6073.4300      0.46312620
       6074.9000      0.44145080
       6076.3700      0.40919510
       6077.8400      0.41393000
       6079.3100      0.42380990
       6080.7800      0.42127370
       6082.2500      0.44246850
       6083.7200      0.43781440
       6085.1900      0.40904760
       6086.6600      0.41257750
       6088.1300      0.42906720
       6089.6000      0.44113230
       6091.0700      0.43395680
       6092.5400      0.41826210
       6094.0100      0.43097730
       6095.4800      0.42925460
       6096.9500      0.42207720
       6098.4200      0.43811400
       6099.8900      0.45321900
       6101.3600      0.44842880
       6102.8300      0.42560070
       6104.3000      0.42303840
       6105.7700      0.43729550
       6107.2400      0.42397360
       6108.7100      0.39057380
       6110.1800      0.41102550
       6111.6500      0.44052170
       6113.1200      0.43515210
       6114.5900      0.45472570
       6116.0600      0.46828900
       6117.5300      0.44531600
       6119.0000      0.43600440
       6120.4700      0.45158260
       6121.9400      0.45787820
       6123.4100      0.43612180
       6124.8800      0.43613070
       6126.3500      0.47776690
       6127.8200      0.50144920
       6129.2900      0.47144970
       6130.7600      0.44982700
       6132.2300      0.46966000
       6133.7000      0.45863680
       6135.1700      0.44617080
       6136.6400      0.43313800
       6138.1100      0.42023670
       6139.5800      0.43778750
       6141.0500      0.48576360
       6142.5200      0.46228780
       6143.9900      0.42514260
       6145.4600      0.44626630
       6146.9300      0.45639660
       6148.4000      0.43770810
       6149.8700      0.44104060
       6151.3400      0.47160740
       6152.8100      0.46164660
       6154.2800      0.41960080
       6155.7500      0.42506650
       6157.2200      0.42000420
       6158.6900      0.44325660
       6160.1600      0.47745980
       6161.6300      0.44430770
       6163.1000      0.42594650
       6164.5700      0.43813450
       6166.0400      0.41650260
       6167.5100      0.40456350
       6168.9800      0.41809360
       6170.4500      0.44057280
       6171.9200      0.46855040
       6173.3900      0.44531850
       6174.8600      0.43451200
       6176.3300      0.47601550
       6177.8000      0.48094900
       6179.2700      0.46928780
       6180.7400      0.45609470
       6182.2100      0.45782800
       6183.6800      0.47058070
       6185.1500      0.47984920
       6186.6200      0.47773720
       6188.0900      0.48529090
       6189.5600      0.52034140
       6191.0300      0.51835570
       6192.5000      0.52176920
       6193.9700      0.48799070
       6195.4400      0.47798060
       6196.9100      0.50248220
       6198.3800      0.53792860
       6199.8500      0.56486040
       6201.3200      0.54791070
       6202.7900      0.55691970
       6204.2600      0.55589040
       6205.7300      0.56932350
       6207.2000      0.60660030
       6208.6700      0.63430450
       6210.1400      0.65063830
       6211.6100      0.61328110
       6213.0800      0.64132020
       6214.5500      0.65468370
       6216.0200      0.67203830
       6217.4900      0.68948030
       6218.9600      0.67257390
       6220.4300      0.69425640
       6221.9000      0.71519400
       6223.3700      0.71725690
       6224.8400      0.74174970
       6226.3100      0.74402670
       6227.7800      0.77701170
       6229.2500      0.79644330
       6230.7200      0.82623260
       6232.1900      0.86266660
       6233.6600      0.86819860
       6235.1300      0.93208070
       6236.6000      0.96441750
       6238.0700      0.94693420
       6239.5400      0.93416740
       6241.0100      0.92281890
       6242.4800      0.95570350
       6243.9500      0.97901400
       6245.4200      0.97405390
       6246.8900       1.0119320
       6248.3600       1.0000080
       6249.8299      0.98721180
       6251.3000       1.0247510
       6252.7700       1.0140510
       6254.2400      0.99210190
       6255.7100      0.99957800
       6257.1800       1.0062540
       6258.6500      0.99205600
       6260.1200       1.0135940
       6261.5900       1.0329010
       6263.0600       1.0332420
       6264.5300       1.0223950
       6266.0000       1.0108420
       6267.4700      0.97075960
       6268.9400      0.98484900
       6270.4100      0.99947180
       6271.8800      0.99773780
       6273.3500      0.99488680
       6274.8200       1.0369830
       6276.2900       1.0425960
       6277.7600       1.0064280
       6279.2300       1.0523410
       6280.7000       1.0607080
       6282.1700       1.0558210
       6283.6400       1.1171640
       6285.1100       1.1273750
       6286.5800       1.0904810
       6288.0500       1.1232420
       6289.5200       1.1475600
       6290.9900       1.1045080
       6292.4600       1.0680300
       6293.9300       1.0870740
       6295.4000       1.1086660
       6296.8700       1.1268510
       6298.3400       1.1275190
       6299.8100       1.1008400
       6301.2800       1.1189740
       6302.7500       1.1056130
       6304.2200       1.0800970
       6305.6900       1.0727450
       6307.1600       1.0873170
       6308.6300       1.0997790
       6310.1000       1.0725520
       6311.5700       1.0662150
       6313.0400       1.0461100
       6314.5100       1.0409970
       6315.9800       1.0436880
       6317.4500       1.0686660
       6318.9200       1.0820320
       6320.3900       1.0526930
       6321.8600       1.0577350
       6323.3300       1.0319210
       6324.8000       1.0061570
       6326.2700       1.0425640
       6327.7400       1.0201000
       6329.2100       1.0241280
       6330.6800       1.0459300
       6332.1500       1.0202930
       6333.6200      0.99293390
       6335.0900      0.98105240
       6336.5600      0.95427980
       6338.0300      0.98395790
       6339.5000       1.0136250
       6340.9700      0.97495200
       6342.4400      0.99681280
       6343.9100      0.96949620
       6345.3800      0.94362910
       6346.8500      0.97670860
       6348.3200      0.97157400
       6349.7900      0.91547220
       6351.2600      0.93803530
       6352.7300      0.95570590
       6354.2000      0.91254040
       6355.6700      0.90608290
       6357.1400      0.92370000
       6358.6100      0.88055090
       6360.0800      0.92039090
       6361.5500      0.92460360
       6363.0200      0.91523070
       6364.4900      0.89850100
       6365.9600      0.88045300
       6367.4300      0.89338000
       6368.9000      0.91126390
       6370.3700      0.87131910
       6371.8400      0.88078580
       6373.3100      0.90559730
       6374.7800      0.85527640
       6376.2500      0.83648630
       6377.7200      0.85613690
       6379.1900      0.84445200
       6380.6600      0.83594820
       6382.1300      0.81423230
       6383.6000      0.80703270
       6385.0700      0.73897490
       6386.5400      0.71406770
       6388.0100      0.75381490
       6389.4800      0.76499580
       6390.9500      0.73152160
       6392.4200      0.72196040
       6393.8900      0.73019720
       6395.3600      0.74078520
       6396.8300      0.75234830
       6398.3000      0.72179180
       6399.7700      0.74496010
       6401.2400      0.78438590
       6402.7100      0.77802350
       6404.1800      0.76397690
       6405.6500      0.76481100
       6407.1200      0.74666920
       6408.5900      0.71843600
       6410.0600      0.68934800
       6411.5300      0.71485740
       6413.0000      0.70210170
       6414.4700      0.71952230
       6415.9400      0.69216810
       6417.4100      0.66050620
       6418.8800      0.69785430
       6420.3500      0.70331660
       6421.8200      0.67556200
       6423.2900      0.67591880
       6424.7600      0.67310670
       6426.2300      0.64876990
       6427.7000      0.67606430
       6429.1700      0.63384150
       6430.6400      0.62281910
       6432.1100      0.65420260
       6433.5800      0.70228560
       6435.0500      0.72071670
       6436.5200      0.68248180
       6437.9900      0.67683040
       6439.4600      0.65462670
       6440.9300      0.69440420
       6442.4000      0.70552860
       6443.8700      0.66385960
       6445.3400      0.62589400
       6446.8100      0.63370200
       6448.2800      0.67226880
       6449.7500      0.67998010
       6451.2200      0.67266560
       6452.6900      0.66761770
       6454.1600      0.65308250
       6455.6300      0.64513310
       6457.1000      0.65486240
       6458.5700      0.66168020
       6460.0400      0.61304280
       6461.5100      0.58626170
       6462.9800      0.63211940
       6464.4500      0.67658330
       6465.9200      0.69739120
       6467.3900      0.64936730
       6468.8600      0.66314890
       6470.3300      0.69003780
       6471.8000      0.64930040
       6473.2700      0.62573390
       6474.7400      0.63083120
       6476.2100      0.66094370
       6477.6800      0.65110180
       6479.1500      0.64984480
       6480.6200      0.65338560
       6482.0900      0.60706100
       6483.5600      0.60454470
       6485.0300      0.61433020
       6486.5000      0.62025760
       6487.9700      0.61156290
       6489.4400      0.63344870
       6490.9100      0.62607800
       6492.3800      0.60704730
       6493.8500      0.59329930
       6495.3200      0.60724630
       6496.7900      0.63724450
       6498.2600      0.63299160
       6499.7300      0.64492290
       6501.2000      0.63603030
       6502.6700      0.62346070
       6504.1400      0.63074520
       6505.6100      0.64530470
       6507.0800      0.64177200
       6508.5500      0.62561060
       6510.0200      0.62321440
       6511.4900      0.61654330
       6512.9600      0.61389380
       6514.4300      0.59145390
       6515.9000      0.59113880
       6517.3700      0.60644910
       6518.8400      0.59745750
       6520.3100      0.60043040
       6521.7800      0.60395820
       6523.2500      0.58766590
       6524.7200      0.58046130
       6526.1900      0.60120330
       6527.6600      0.58122770
       6529.1300      0.57315390
       6530.6000      0.56200060
       6532.0700      0.53637400
       6533.5400      0.53633360
       6535.0100      0.54747790
       6536.4800      0.53010030
       6537.9500      0.53246990
       6539.4200      0.54328690
       6540.8900      0.53249730
       6542.3600      0.56322670
       6543.8300      0.56774220
       6545.3000      0.58421560
       6546.7700      0.57471880
       6548.2400      0.54593130
       6549.7100      0.53795050
       6551.1800      0.48912280
       6552.6500      0.49661670
       6554.1200      0.51430960
       6555.5900      0.51389720
       6557.0600      0.56023590
       6558.5300      0.56898030
       6560.0000      0.55742700
       6561.4700      0.54126320
       6562.9399      0.54804560
       6564.4100      0.54878130
       6565.8800      0.55752680
       6567.3500      0.54382980
       6568.8200      0.53616030
       6570.2900      0.51892040
       6571.7600      0.51256340
       6573.2300      0.51636780
       6574.7000      0.54504120
       6576.1700      0.56673880
       6577.6400      0.55639490
       6579.1100      0.54098670
       6580.5800      0.55428330
       6582.0500      0.54741100
       6583.5200      0.57115190
       6584.9900      0.56186930
       6586.4600      0.55184400
       6587.9300      0.54347610
       6589.4000      0.59801560
       6590.8700      0.66305840
       6592.3400      0.69874160
       6593.8100      0.76855150
       6595.2800      0.71791290
       6596.7500      0.63778040
       6598.2200      0.57784320
       6599.6900      0.50094320
       6601.1600      0.47262450
       6602.6300      0.51218710
       6604.1000      0.54661520
       6605.5700      0.51981610
       6607.0400      0.52226350
       6608.5100      0.51030650
       6609.9800      0.51962860
       6611.4500      0.57972840
       6612.9200      0.55613490
       6614.3900      0.56081780
       6615.8600      0.52926790
       6617.3300      0.50666030
       6618.8000      0.53097030
       6620.2700      0.51643030
       6621.7400      0.53293970
       6623.2100      0.50204010
       6624.6800      0.51609030
       6626.1500      0.48996540
       6627.6200      0.48981540
       6629.0900      0.51215210
       6630.5600      0.45257260
       6632.0300      0.46374340
       6633.5000      0.45556490
       6634.9700      0.44796060
       6636.4400      0.49836390
       6637.9100      0.47989090
       6639.3800      0.46521920
       6640.8500      0.45699860
       6642.3200      0.43931420
       6643.7900      0.46122260
       6645.2600      0.46756340
       6646.7300      0.44807630
       6648.2000      0.44517830
       6649.6700      0.48014710
       6651.1400      0.47261080
       6652.6100      0.44640670
       6654.0800      0.41267030
       6655.5500      0.44170070
       6657.0200      0.47436590
       6658.4900      0.43322740
       6659.9600      0.41045580
       6661.4300      0.39666340
       6662.9000      0.42729890
       6664.3700      0.44730690
       6665.8400      0.45618720
       6667.3100      0.44935940
       6668.7800      0.42081120
       6670.2500      0.42620300
       6671.7200      0.42284240
       6673.1900      0.43522830
       6674.6600      0.43835230
       6676.1300      0.43965120
       6677.6000      0.44262650
       6679.0700      0.45390300
       6680.5400      0.42717400
       6682.0100      0.40381830
       6683.4800      0.38402960
       6684.9500      0.40042930
       6686.4200      0.42669960
       6687.8900      0.41453800
       6689.3600      0.40350640
       6690.8300      0.40337450
       6692.3000      0.43016480
       6693.7700      0.41611000
       6695.2400      0.40476390
       6696.7100      0.42256950
       6698.1800      0.43080950
       6699.6500      0.40371010
       6701.1200      0.41826120
       6702.5900      0.42746560
       6704.0600      0.41886720
       6705.5300      0.41328130
       6707.0000      0.39434210
       6708.4700      0.38399610
       6709.9400      0.43190280
       6711.4100      0.42415610
       6712.8800      0.39191140
       6714.3500      0.39718080
       6715.8200      0.38503810
       6717.2900      0.40772610
       6718.7600      0.38353910
       6720.2300      0.35000630
       6721.7000      0.38893540
       6723.1700      0.38928290
       6724.6400      0.35158300
       6726.1100      0.34889720
       6727.5800      0.38061200
       6729.0500      0.39243440
       6730.5200      0.36990130
       6731.9900      0.37689020
       6733.4600      0.37374820
       6734.9300      0.35809260
       6736.4000      0.37859890
       6737.8700      0.37247950
       6739.3400      0.36604590
       6740.8100      0.35845170
       6742.2800      0.33820050
       6743.7500      0.35729920
       6745.2200      0.36215850
       6746.6900      0.36696020
       6748.1600      0.39384980
       6749.6300      0.39246420
       6751.1000      0.36611840
       6752.5700      0.31251990
       6754.0400      0.31040990
       6755.5100      0.34586120
       6756.9800      0.32557940
       6758.4500      0.33659800
       6759.9200      0.37196250
       6761.3900      0.37186410
       6762.8600      0.36829970
       6764.3300      0.35343760
       6765.8000      0.34624350
       6767.2700      0.32586470
       6768.7400      0.33882010
       6770.2100      0.33830040
       6771.6800      0.30952150
       6773.1500      0.32769170
       6774.6200      0.29801340
       6776.0900      0.28551940
       6777.5600      0.29092080
       6779.0300      0.32037960
       6780.5000      0.33451780
       6781.9700      0.32810450
       6783.4400      0.32368190
       6784.9100      0.32270850
       6786.3800      0.33014700
       6787.8500      0.34547290
       6789.3200      0.36819310
       6790.7900      0.33670470
       6792.2600      0.33311820
       6793.7300      0.32840410
       6795.2000      0.31389260
       6796.6700      0.36010390
       6798.1400      0.31987150
       6799.6100      0.31806910
       6801.0800      0.34077420
       6802.5500      0.33717940
       6804.0200      0.35619160
       6805.4900      0.35779460
       6806.9600      0.35592930
       6808.4300      0.32912690
       6809.9000      0.30095580
       6811.3700      0.31082140
       6812.8400      0.30800210
       6814.3100      0.30025520
       6815.7800      0.36239070
       6817.2500      0.31795700
       6818.7200      0.32040260
       6820.1900      0.34768760
       6821.6600      0.35965560
       6823.1300      0.32220220
       6824.6000      0.34615580
       6826.0700      0.32011650
       6827.5400      0.34983490
       6829.0100      0.34777780
       6830.4800      0.29293850
       6831.9500      0.30869290
       6833.4200      0.29917290
       6834.8900      0.31212320
       6836.3600      0.32524320
       6837.8300      0.32910440
       6839.3000      0.30186900
       6840.7700      0.27920150
       6842.2400      0.32965750
       6843.7100      0.31782820
       6845.1800      0.31072780
       6846.6500      0.31669860
       6848.1200      0.31483650
       6849.5900      0.33556080
       6851.0600      0.31692950
       6852.5300      0.33550450
       6854.0000      0.33070000
       6855.4700      0.30553050
       6856.9400      0.32561730
       6858.4100      0.33600570
       6859.8800      0.33668650
       6861.3500      0.33514910
       6862.8200      0.34702990
       6864.2900      0.30213030
       6865.7600      0.28026330
       6867.2300      0.31074000
       6868.7000      0.28848360
       6870.1700      0.27527000
       6871.6400      0.28879030
       6873.1100      0.29049410
       6874.5800      0.30045270
       6876.0499      0.25759150
       6877.5200      0.33351100
       6878.9900      0.29358500
       6880.4600      0.29296170
       6881.9300      0.27007870
       6883.4000      0.30722900
       6884.8700      0.31691780
       6886.3400      0.32026700
       6887.8100      0.29775090
       6889.2800      0.29425280
       6890.7500      0.30884100
       6892.2200      0.31916610
       6893.6900      0.28300780
       6895.1600      0.25625050
       6896.6300      0.29670930
       6898.1000      0.30711100
       6899.5700      0.29485070
       6901.0400      0.30013060
       6902.5100      0.30996550
       6903.9800      0.28231850
       6905.4500      0.27289390
       6906.9200      0.25448170
       6908.3900      0.23018960
       6909.8600      0.25635280
       6911.3300      0.25312080
       6912.8000      0.30351720
       6914.2700      0.30922730
       6915.7400      0.30731730
       6917.2100      0.30751890
       6918.6800      0.26813790
       6920.1500      0.26869320
       6921.6200      0.26347420
       6923.0900      0.23995320
       6924.5600      0.27788630
       6926.0300      0.24934300
       6927.5000      0.25523290
       6928.9700      0.26516820
       6930.4400      0.29175420
       6931.9100      0.28345690
       6933.3800      0.25383140
       6934.8500      0.28885750
       6936.3200      0.31065170
       6937.7900      0.26661510
       6939.2600      0.31335270
       6940.7300      0.28383160
       6942.2000      0.33154940
       6943.6700      0.32146550
       6945.1400      0.26033330
       6946.6100      0.30801650
       6948.0800      0.29715580
       6949.5500      0.32010130
       6951.0200      0.31361190
       6952.4900      0.28779560
       6953.9600      0.29578300
       6955.4300      0.31135970
       6956.9000      0.29743760
       6958.3700      0.31398160
       6959.8400      0.31780780
       6961.3100      0.29729760
       6962.7800      0.32746970
       6964.2500      0.36106280
       6965.7200      0.32295390
       6967.1900      0.32598110
       6968.6600      0.35342080
       6970.1300      0.31306980
       6971.6000      0.29063780
       6973.0700      0.31227890
       6974.5400      0.33604370
       6976.0100      0.34007270
       6977.4800      0.32863980
       6978.9500      0.34518860
       6980.4200      0.36972030
       6981.8900      0.35368590
       6983.3600      0.32355140
       6984.8300      0.34820190
       6986.3000      0.35196050
       6987.7700      0.33487190
       6989.2400      0.35716400
       6990.7100      0.34355350
       6992.1800      0.33334480
       6993.6500      0.31919830
       6995.1200      0.33566710
       6996.5900      0.36832090
       6998.0600      0.35615460
       6999.5300      0.34171170
       7001.0000      0.36588380
       7002.4700      0.37687550
       7003.9400      0.38685730
       7005.4100      0.38687790
       7006.8800      0.35347380
       7008.3500      0.37003870
       7009.8200      0.38901220
       7011.2900      0.37284880
       7012.7600      0.36394360
       7014.2300      0.39211250
       7015.7000      0.43195100
       7017.1700      0.41935920
       7018.6400      0.36960790
       7020.1100      0.37217850
       7021.5800      0.37317990
       7023.0500      0.36548050
       7024.5200      0.38521250
       7025.9900      0.36248420
       7027.4600      0.34621780
       7028.9300      0.35302700
       7030.4000      0.33686160
       7031.8700      0.33357690
       7033.3400      0.38180420
       7034.8100      0.36099160
       7036.2800      0.32330610
       7037.7500      0.33956870
       7039.2200      0.38013660
       7040.6900      0.38197800
       7042.1600      0.35997830
       7043.6300      0.35244450
       7045.1000      0.36356020
       7046.5700      0.40563970
       7048.0400      0.36496890
       7049.5100      0.32953260
       7050.9800      0.32763940
       7052.4500      0.35184030
       7053.9200      0.36518620
       7055.3900      0.36229950
       7056.8600      0.35713470
       7058.3300      0.37116660
       7059.8000      0.35999400
       7061.2700      0.35705000
       7062.7400      0.35745280
       7064.2100      0.36542970
       7065.6800      0.34701920
       7067.1500      0.34495830
       7068.6200      0.36335080
       7070.0900      0.36534510
       7071.5600      0.40053910
       7073.0300      0.39454640
       7074.5000      0.37617500
       7075.9700      0.37422320
       7077.4400      0.36953770
       7078.9100      0.36034220
       7080.3800      0.38424930
       7081.8500      0.40767040
       7083.3200      0.37378930
       7084.7900      0.36325490
       7086.2600      0.36203850
       7087.7300      0.36712020
       7089.2000      0.38594000
       7090.6700      0.36475680
       7092.1400      0.31734260
       7093.6100      0.35494980
       7095.0800      0.37109060
       7096.5500      0.36792780
       7098.0200      0.39088200
       7099.4900      0.43272990
       7100.9600      0.39622460
       7102.4300      0.34638480
       7103.9000      0.33995590
       7105.3700      0.36578800
       7106.8400      0.38111110
       7108.3100      0.36225660
       7109.7800      0.35698340
       7111.2500      0.36973860
       7112.7200      0.35619270
       7114.1900      0.38523130
       7115.6600      0.38103280
       7117.1300      0.38605960
       7118.6000      0.40520170
       7120.0700      0.39872250
       7121.5400      0.37906080
       7123.0100      0.33411430
       7124.4800      0.35014190
       7125.9500      0.37607470
       7127.4200      0.39716460
       7128.8900      0.39043700
       7130.3600      0.35251050
       7131.8300      0.39543280
       7133.3000      0.40008470
       7134.7700      0.37127550
       7136.2400      0.35985650
       7137.7100      0.36467440
       7139.1800      0.36571730
       7140.6500      0.34034090
       7142.1200      0.33406000
       7143.5900      0.34347290
       7145.0600      0.35977270
       7146.5300      0.35908200
       7148.0000      0.37056130
       7149.4700      0.39314410
       7150.9400      0.38171220
       7152.4100      0.39507680
       7153.8800      0.39277070
       7155.3500      0.40923210
       7156.8200      0.41140560
       7158.2900      0.40110080
       7159.7600      0.38832920
       7161.2300      0.39969820
       7162.7000      0.39735630
       7164.1700      0.42154380
       7165.6400      0.42516370
       7167.1100      0.40620100
       7168.5800      0.44236940
       7170.0500      0.43204510
       7171.5200      0.40386640
       7172.9900      0.41169750
       7174.4600      0.42940990
       7175.9300      0.42409580
       7177.4000      0.44603120
       7178.8700      0.42468850
       7180.3400      0.41984910
       7181.8100      0.40002690
       7183.2800      0.44685140
       7184.7500      0.44194290
       7186.2200      0.43351470
       7187.6900      0.47181870
       7189.1599      0.45881580
       7190.6300      0.46235230
       7192.1000      0.44308390
       7193.5700      0.44782350
       7195.0400      0.48144050
       7196.5100      0.45319400
       7197.9800      0.46073440
       7199.4500      0.47484160
       7200.9200      0.47607440
       7202.3900      0.46257760
       7203.8600      0.45730430
       7205.3300      0.49172220
       7206.8000      0.49230030
       7208.2700      0.44341760
       7209.7400      0.45682670
       7211.2100      0.48075960
       7212.6800      0.48013580
       7214.1500      0.47928460
       7215.6200      0.46708340
       7217.0900      0.42770990
       7218.5600      0.46094120
       7220.0300      0.46171650
       7221.5000      0.49920810
       7222.9700      0.50285050
       7224.4400      0.48170890
       7225.9100      0.46347210
       7227.3800      0.44390240
       7228.8500      0.43520870
       7230.3200      0.46191590
       7231.7900      0.45701000
       7233.2600      0.46127580
       7234.7300      0.50965260
       7236.2000      0.54455440
       7237.6700      0.48574570
       7239.1400      0.44187020
       7240.6100      0.51810320
       7242.0800      0.49055420
       7243.5500      0.46666690
       7245.0200      0.49114870
       7246.4900      0.47058640
       7247.9600      0.49457250
       7249.4300      0.51526590
       7250.9000      0.54139950
       7252.3700      0.53269800
       7253.8400      0.53035690
       7255.3100      0.54190070
       7256.7800      0.52095200
       7258.2500      0.49400970
       7259.7200      0.51822740
       7261.1900      0.53695560
       7262.6600      0.56397590
       7264.1300      0.58052520
       7265.6000      0.59079300
       7267.0700      0.55386510
       7268.5400      0.50840180
       7270.0100      0.50415960
       7271.4800      0.55740260
       7272.9500      0.56846360
       7274.4200      0.65392920
       7275.8900      0.62954650
       7277.3600      0.59555200
       7278.8300      0.57567930
       7280.3000      0.58247640
       7281.7700      0.57638250
       7283.2400      0.55772100
       7284.7100      0.58006410
       7286.1800      0.59465770
       7287.6500      0.59643410
       7289.1200      0.62288790
       7290.5900      0.64064470
       7292.0600      0.66256870
       7293.5300      0.66515310
       7295.0000      0.64340170
       7296.4700      0.59175010
       7297.9400      0.58785680
       7299.4100      0.63998720
       7300.8800      0.64005920
       7302.3500      0.69038270
       7303.8200      0.68614190
       7305.2900      0.66475530
       7306.7600      0.65120030
       7308.2300      0.67285340
       7309.7000      0.69347790
       7311.1700      0.69242080
       7312.6400      0.71062220
       7314.1100      0.69241620
       7315.5800      0.67413930
       7317.0500      0.71846560
       7318.5200      0.66392060
       7319.9900      0.66272770
       7321.4600      0.65744420
       7322.9300      0.68405930
       7324.4000      0.66948300
       7325.8700      0.63503300
       7327.3400      0.60434480
       7328.8100      0.67263840
       7330.2800      0.67871370
       7331.7500      0.64601890
       7333.2200      0.64203380
       7334.6900      0.64938100
       7336.1600      0.63407040
       7337.6300      0.63950230
       7339.1000      0.61819490
       7340.5700      0.63069820
       7342.0400      0.66663560
       7343.5100      0.64907410
       7344.9800      0.64258030
       7346.4500      0.64823000
       7347.9200      0.60896590
       7349.3900      0.61242470
       7350.8600      0.64972090
       7352.3300      0.65604010
       7353.8000      0.61032290
       7355.2700      0.64144030
       7356.7400      0.63787510
       7358.2100      0.62343650
       7359.6800      0.64712950
       7361.1500      0.60348650
       7362.6200      0.58664800
       7364.0900      0.61570360
       7365.5600      0.61562630
       7367.0300      0.56849130
       7368.5000      0.59066440
       7369.9700      0.60931740
       7371.4400      0.56537430
       7372.9100      0.53526970
       7374.3800      0.54292690
       7375.8500      0.50944430
       7377.3200      0.52032330
       7378.7900      0.57741900
       7380.2600      0.60476260
       7381.7300      0.57931760
       7383.2000      0.57203350
       7384.6700      0.53998200
       7386.1400      0.52147660
       7387.6100      0.51655410
       7389.0800      0.48330760
       7390.5500      0.49214090
       7392.0200      0.52385330
       7393.4900      0.52366600
       7394.9600      0.49429280
       7396.4300      0.50327910
       7397.9000      0.47001780
       7399.3700      0.51496860
       7400.8400      0.52078570
       7402.3100      0.47952490
       7403.7800      0.50528420
       7405.2500      0.52193900
       7406.7200      0.50297300
       7408.1900      0.49607260
       7409.6600      0.49012570
       7411.1300      0.49296940
       7412.6000      0.52091590
       7414.0700      0.51000680
       7415.5400      0.49386950
