Units are: observed wavelength (Ang), observed flux (10^-15 erg/s/cm^2/Ang)
       3474.0000      0.25010370
       3475.4700      0.16798390
       3476.9400    -0.046958840
       3478.4100     0.064163950
       3479.8800     0.077674800
       3481.3500       1.3569670
       3482.8200       2.6180940
       3484.2900    -0.087661260
       3485.7600    -0.096082680
       3487.2300     0.031043560
       3488.7000      0.21293760
       3490.1700      0.16215920
       3491.6400     0.072116460
       3493.1100     -0.13793550
       3494.5800    -0.086432010
       3496.0500     0.073065750
       3497.5200      0.16706540
       3498.9900     0.083264340
       3500.4600     -0.14970590
       3501.9300     -0.13921500
       3503.4000     0.030074670
       3504.8700     0.060064840
       3506.3400     0.025775200
       3507.8100     0.068523330
       3509.2800     0.011456210
       3510.7500      0.10168990
       3512.2200     0.062870540
       3513.6900      0.23518910
       3515.1600      0.93307610
       3516.6300      0.57618520
       3518.1000      0.48050650
       3519.5700      0.32994340
       3521.0400     0.080434780
       3522.5100      0.17837600
       3523.9800      0.31522200
       3525.4500       1.0209250
       3526.9200      0.44689310
       3528.3900      0.54401640
       3529.8600      0.57423270
       3531.3300       1.4924370
       3532.8000      0.43541310
       3534.2700    -0.019747890
       3535.7400      0.17224960
       3537.2100      0.13560510
       3538.6800      0.96045050
       3540.1500       1.3245500
       3541.6200      0.26280130
       3543.0900      0.15265770
       3544.5600      0.37276640
       3546.0300      0.76951870
       3547.5000      0.10942640
       3548.9700      0.55622760
       3550.4400       1.7287610
       3551.9100      0.30633460
       3553.3800      0.12882220
       3554.8500  -0.00066665900
       3556.3200      0.39084520
       3557.7900      0.70744790
       3559.2600     -0.41163590
       3560.7300      0.13684380
       3562.2000      0.29340450
       3563.6700     0.035790140
       3565.1400     -0.20894430
       3566.6100      0.47277220
       3568.0800      0.65681950
       3569.5500     -0.12667620
       3571.0200     0.048574540
       3572.4900      0.18938780
       3573.9600      0.48514830
       3575.4300      0.83809240
       3576.9000      0.44150090
       3578.3700     0.056781010
       3579.8400      0.24413400
       3581.3100      0.38206530
       3582.7800     0.084575330
       3584.2500    -0.027187990
       3585.7200     0.039755440
       3587.1900     0.049701000
       3588.6600      0.10342720
       3590.1300      0.64772540
       3591.6000      0.37832910
       3593.0700    -0.016986820
       3594.5400      0.44787120
       3596.0100      0.33696240
       3597.4800    -0.033829820
       3598.9500    -0.069792790
       3600.4200     0.045659430
       3601.8900    0.0063824560
       3603.3600    -0.074961870
       3604.8300      0.12272080
       3606.3000      0.56335200
       3607.7700     0.081100610
       3609.2400      0.40481140
       3610.7100      0.90020350
       3612.1800      0.25361800
       3613.6500     0.084955290
       3615.1200     0.086842010
       3616.5900     0.022170000
       3618.0600    -0.062634590
       3619.5300     -0.11279410
       3621.0000     0.046267350
       3622.4700      0.16729190
       3623.9400      0.46829910
       3625.4100     0.076375480
       3626.8800      0.20048380
       3628.3500      0.86255460
       3629.8200      0.27069200
       3631.2900     0.088716120
       3632.7600     0.025630110
       3634.2300   -0.0051408360
       3635.7000      0.26134010
       3637.1700      0.22928540
       3638.6400     0.038973580
       3640.1100      0.20162810
       3641.5800      0.14160530
       3643.0500     0.046535740
       3644.5200    -0.088307690
       3645.9900     -0.16207090
       3647.4600     -0.14262060
       3648.9300     -0.25128650
       3650.4000     0.062903110
       3651.8700     0.044220300
       3653.3400     0.055796650
       3654.8100      0.11512680
       3656.2800     0.080988740
       3657.7500     0.044526090
       3659.2200     0.028662860
       3660.6900     0.087296340
       3662.1600      0.11598270
       3663.6300     0.095846180
       3665.1000      0.13709030
       3666.5700      0.13111190
       3668.0400      0.10274540
       3669.5100      0.13543310
       3670.9800      0.15128770
       3672.4500    0.0015738750
       3673.9200     0.075795070
       3675.3900      0.12827250
       3676.8600    -0.017673720
       3678.3300     0.017128170
       3679.8000     0.088546630
       3681.2700     0.092852910
       3682.7400     0.083753900
       3684.2100     0.086526480
       3685.6800      0.29505500
       3687.1500      0.26261130
       3688.6200     0.020873900
       3690.0900     0.018813170
       3691.5600     0.026287650
       3693.0300     0.060176600
       3694.5000      0.14652550
       3695.9700      0.13344770
       3697.4400      0.14665180
       3698.9100     0.077038840
       3700.3800    -0.022649000
       3701.8500   -0.0088807220
       3703.3200     0.057751270
       3704.7900     0.064894690
       3706.2600   -0.0091257340
       3707.7300      0.12217180
       3709.2000     0.043858150
       3710.6700     0.094014870
       3712.1400      0.25019260
       3713.6100     0.083341650
       3715.0800     0.098686840
       3716.5500      0.12140070
       3718.0200      0.13554270
       3719.4900      0.11563490
       3720.9600     0.068399610
       3722.4300    0.0074338930
       3723.9000     0.089052390
       3725.3700      0.12119460
       3726.8400      0.12003770
       3728.3100      0.18937730
       3729.7800      0.31262870
       3731.2500      0.31757110
       3732.7200    0.0075576240
       3734.1900      0.11314340
       3735.6600      0.20718160
       3737.1300      0.18607200
       3738.6000      0.20433540
       3740.0700     0.099840440
       3741.5400      0.18880650
       3743.0100      0.23626170
       3744.4800      0.30591010
       3745.9500      0.24164730
       3747.4200      0.24810830
       3748.8900     0.087982650
       3750.3600    -0.070369380
       3751.8300      0.12442920
       3753.3000      0.18318730
       3754.7700      0.46050570
       3756.2400      0.45499640
       3757.7100      0.16483290
       3759.1800      0.51424210
       3760.6500      0.36476030
       3762.1200    -0.026503570
       3763.5900      0.15945370
       3765.0600      0.19027090
       3766.5300      0.15916490
       3768.0000      0.19966720
       3769.4700      0.15224680
       3770.9400      0.13696130
       3772.4100      0.93937990
       3773.8800      0.54694490
       3775.3500    -0.035969160
       3776.8200     0.072808380
       3778.2901     0.081907530
       3779.7600      0.12362940
       3781.2300     0.083566560
       3782.7000      0.11826950
       3784.1700     0.018884480
       3785.6400     0.053435490
       3787.1100     0.094580280
       3788.5800      0.12905240
       3790.0500      0.13131480
       3791.5200     0.088213230
       3792.9900      0.18839280
       3794.4600      0.16692530
       3795.9300      0.10817990
       3797.4000     0.080611120
       3798.8700     0.059888360
       3800.3400      0.24495730
       3801.8100     0.077328720
       3803.2800     0.042329530
       3804.7500     0.013593020
       3806.2200     0.065299730
       3807.6900     0.034800890
       3809.1600      0.18400010
       3810.6300      0.16677150
       3812.1000      0.13911480
       3813.5700      0.11882880
       3815.0400      0.13307850
       3816.5100     0.065148140
       3817.9800     0.059597050
       3819.4500      0.12422040
       3820.9200      0.17358490
       3822.3900      0.12993660
       3823.8600     0.084015530
       3825.3300      0.10517330
       3826.8000      0.53905930
       3828.2700      0.27172900
       3829.7400     0.041942120
       3831.2100    -0.041213810
       3832.6800     0.016800110
       3834.1500      0.15151980
       3835.6200     0.019808310
       3837.0900     0.011305640
       3838.5600      0.16155630
       3840.0300      0.17504330
       3841.5000    0.0073017920
       3842.9700     0.078120250
       3844.4400     0.054939690
       3845.9100      0.11798570
       3847.3800     0.038865440
       3848.8500    -0.059631230
       3850.3200     0.087326870
       3851.7900      0.31960640
       3853.2600      0.30576620
       3854.7300     0.017446390
       3856.2000      0.12225720
       3857.6700      0.17416690
       3859.1400      0.17311570
       3860.6100      0.21994060
       3862.0800     0.080733130
       3863.5500     0.070582910
       3865.0200      0.30961450
       3866.4900      0.23990000
       3867.9600     0.014291580
       3869.4300     0.053470790
       3870.9000      0.13328790
       3872.3700      0.29848350
       3873.8400      0.27395120
       3875.3100      0.20983300
       3876.7800      0.15994870
       3878.2500      0.17330750
       3879.7200      0.12282950
       3881.1900     0.091047960
       3882.6600      0.27499290
       3884.1300      0.27576850
       3885.6000      0.11092230
       3887.0700      0.10584780
       3888.5400      0.28467290
       3890.0100      0.16145140
       3891.4800      0.16772860
       3892.9500      0.22111440
       3894.4200      0.31430060
       3895.8900      0.30270760
       3897.3600     0.096711010
       3898.8300      0.14245470
       3900.3000     0.085871800
       3901.7700      0.13532840
       3903.2400      0.20826560
       3904.7100      0.16494630
       3906.1800      0.12180490
       3907.6500      0.44063590
       3909.1200      0.16902610
       3910.5900      0.14886060
       3912.0600      0.43664040
       3913.5300      0.17471020
       3915.0000     0.094106700
       3916.4700      0.33168710
       3917.9400      0.23531850
       3919.4100      0.15988740
       3920.8800      0.43195360
       3922.3500      0.35392080
       3923.8200      0.21056130
       3925.2900      0.26385530
       3926.7600      0.63188560
       3928.2300      0.24134250
       3929.7000      0.19563190
       3931.1700      0.28049120
       3932.6400      0.25760750
       3934.1100      0.18996680
       3935.5800      0.21515690
       3937.0500      0.23562050
       3938.5200      0.29029180
       3939.9900      0.24976130
       3941.4600      0.32848320
       3942.9300      0.45190950
       3944.4000      0.22950720
       3945.8700      0.30503350
       3947.3400      0.36434080
       3948.8100      0.21222730
       3950.2800      0.38388480
       3951.7500      0.40116600
       3953.2200      0.34363580
       3954.6900      0.32588510
       3956.1600      0.25455060
       3957.6300      0.19310680
       3959.1000      0.23907280
       3960.5700      0.25454830
       3962.0400      0.29394340
       3963.5100      0.32664070
       3964.9800      0.41785860
       3966.4500      0.33802220
       3967.9200      0.31385560
       3969.3900      0.46883380
       3970.8600      0.47740910
       3972.3300      0.31174930
       3973.8000      0.27305270
       3975.2700      0.37715750
       3976.7400      0.34035650
       3978.2100      0.43644720
       3979.6800      0.45373380
       3981.1500      0.36019420
       3982.6200      0.29627610
       3984.0900      0.23652600
       3985.5600      0.22791060
       3987.0300      0.33846210
       3988.5000      0.33480910
       3989.9700      0.17794390
       3991.4400      0.20900080
       3992.9100      0.26809880
       3994.3800      0.26708240
       3995.8500      0.23799970
       3997.3200      0.55150440
       3998.7900      0.50249260
       4000.2600      0.29144970
       4001.7300      0.26310050
       4003.2000      0.27731510
       4004.6700      0.21339030
       4006.1400      0.25155690
       4007.6100      0.27890260
       4009.0800      0.30323700
       4010.5500      0.45774830
       4012.0200      0.48197520
       4013.4900      0.33957400
       4014.9600      0.28998740
       4016.4300      0.42506540
       4017.9000      0.34578520
       4019.3700      0.37082680
       4020.8400      0.39731690
       4022.3100      0.30492320
       4023.7800      0.30775050
       4025.2500      0.24807040
       4026.7200      0.24265440
       4028.1900      0.23098960
       4029.6600      0.23704530
       4031.1300      0.36743760
       4032.6000      0.25332950
       4034.0700      0.30922000
       4035.5400      0.46590440
       4037.0100      0.37855260
       4038.4800      0.31619100
       4039.9500      0.36580120
       4041.4200      0.46045010
       4042.8900      0.50862780
       4044.3600      0.45539360
       4045.8300      0.26130520
       4047.3000      0.31462200
       4048.7700      0.24230280
       4050.2400      0.27811210
       4051.7100      0.25568590
       4053.1800      0.40224960
       4054.6500      0.51082370
       4056.1200      0.61740100
       4057.5900      0.48399130
       4059.0600      0.40312530
       4060.5300      0.51288030
       4062.0000      0.47312160
       4063.4700      0.33050530
       4064.9400      0.27540920
       4066.4100      0.29269250
       4067.8800      0.40675600
       4069.3500      0.40583130
       4070.8200      0.37805680
       4072.2900      0.27006660
       4073.7600      0.28980620
       4075.2300      0.34870670
       4076.7000      0.26509420
       4078.1700      0.26811200
       4079.6400      0.33799980
       4081.1100      0.33851020
       4082.5800      0.38003680
       4084.0500      0.31762200
       4085.5200      0.26168120
       4086.9900      0.22194390
       4088.4600      0.33198380
       4089.9300      0.36930570
       4091.4001      0.31550090
       4092.8700      0.36392980
       4094.3400      0.23107200
       4095.8100      0.31684690
       4097.2800      0.27127220
       4098.7500      0.18271210
       4100.2200      0.29377370
       4101.6900      0.32951270
       4103.1600      0.27151060
       4104.6300      0.26640780
       4106.1000      0.24075420
       4107.5700      0.32093070
       4109.0400      0.31630420
       4110.5100      0.22242610
       4111.9800      0.22841690
       4113.4500      0.19445230
       4114.9200      0.18390970
       4116.3900      0.20530810
       4117.8600      0.29091550
       4119.3300      0.26185560
       4120.8000      0.26590690
       4122.2700      0.24299000
       4123.7400      0.21869170
       4125.2100      0.27189390
       4126.6800      0.29306910
       4128.1500      0.20562620
       4129.6200      0.17044880
       4131.0900      0.18683320
       4132.5600      0.20681560
       4134.0300      0.31579770
       4135.5000      0.35817710
       4136.9700      0.29547690
       4138.4400      0.26273520
       4139.9100      0.20546070
       4141.3800      0.28009670
       4142.8500      0.23949360
       4144.3200      0.22646030
       4145.7900      0.25033520
       4147.2600      0.26050070
       4148.7300      0.30413990
       4150.2000      0.31024610
       4151.6700      0.34259970
       4153.1400      0.30851340
       4154.6100      0.25997610
       4156.0800      0.28061400
       4157.5500      0.36709150
       4159.0200      0.25508520
       4160.4900      0.19133280
       4161.9600      0.24051820
       4163.4300      0.29133230
       4164.9000      0.32732820
       4166.3700      0.26432310
       4167.8400      0.22204680
       4169.3100      0.24521150
       4170.7800      0.20719770
       4172.2500      0.19661280
       4173.7200      0.19037520
       4175.1900      0.26134720
       4176.6600      0.25271770
       4178.1300      0.28742920
       4179.6000      0.31680070
       4181.0700      0.29872620
       4182.5400      0.25191560
       4184.0100      0.22366620
       4185.4800      0.23327480
       4186.9500      0.19370060
       4188.4200      0.17931530
       4189.8900      0.23036230
       4191.3600      0.25094350
       4192.8300      0.22471590
       4194.3000      0.15608360
       4195.7700      0.20742720
       4197.2400      0.21341830
       4198.7100      0.16818820
       4200.1800      0.14998480
       4201.6500      0.26360610
       4203.1200      0.21912030
       4204.5900      0.15180160
       4206.0600      0.11843050
       4207.5300      0.21133000
       4209.0000      0.19476170
       4210.4700      0.21158730
       4211.9400      0.22264060
       4213.4100      0.20456390
       4214.8800      0.23770470
       4216.3500      0.22438830
       4217.8200      0.18968830
       4219.2900      0.20046710
       4220.7600      0.21855780
       4222.2300      0.21056320
       4223.7000      0.21318420
       4225.1700      0.24443160
       4226.6400      0.25206390
       4228.1100      0.23587020
       4229.5800      0.22771430
       4231.0500      0.19691900
       4232.5200      0.19739000
       4233.9900      0.25214560
       4235.4600      0.22482300
       4236.9300      0.22839740
       4238.4000      0.24373260
       4239.8700      0.21809830
       4241.3400      0.25850760
       4242.8100      0.25340350
       4244.2800      0.21467510
       4245.7500      0.24678550
       4247.2200      0.26985180
       4248.6900      0.26211610
       4250.1600      0.23390800
       4251.6300      0.22341050
       4253.1000      0.22027250
       4254.5700      0.21895650
       4256.0400      0.23534040
       4257.5100      0.26359900
       4258.9800      0.24838370
       4260.4500      0.28953260
       4261.9200      0.28486000
       4263.3900      0.23482610
       4264.8600      0.23461620
       4266.3300      0.23716630
       4267.8000      0.23036590
       4269.2700      0.26015650
       4270.7400      0.27350840
       4272.2100      0.22118190
       4273.6800      0.22033020
       4275.1500      0.25063260
       4276.6200      0.25998630
       4278.0900      0.28464690
       4279.5600      0.23035860
       4281.0300      0.26801310
       4282.5000      0.28108570
       4283.9700      0.30091970
       4285.4400      0.29478680
       4286.9100      0.24818870
       4288.3800      0.23864290
       4289.8500      0.25559800
       4291.3200      0.28608650
       4292.7900      0.24365370
       4294.2600      0.21608720
       4295.7300      0.27099480
       4297.2000      0.27506790
       4298.6700      0.23580660
       4300.1400      0.23564930
       4301.6100      0.23635090
       4303.0800      0.26810340
       4304.5500      0.23719090
       4306.0200      0.23428060
       4307.4900      0.22559840
       4308.9600      0.22528780
       4310.4300      0.27032210
       4311.9000      0.28262460
       4313.3700      0.26486690
       4314.8400      0.24433640
       4316.3100      0.26779910
       4317.7800      0.27090380
       4319.2500      0.29315120
       4320.7200      0.26937640
       4322.1900      0.23043650
       4323.6600      0.26534310
       4325.1300      0.25879120
       4326.6000      0.24525170
       4328.0700      0.27465380
       4329.5400      0.26498740
       4331.0100      0.23867320
       4332.4800      0.21323200
       4333.9500      0.21118790
       4335.4200      0.24372340
       4336.8900      0.27289080
       4338.3600      0.26958830
       4339.8300      0.24786720
       4341.3000      0.26329400
       4342.7700      0.23880640
       4344.2400      0.25054400
       4345.7100      0.26558000
       4347.1800      0.24091470
       4348.6500      0.23810000
       4350.1200      0.25886750
       4351.5900      0.26090390
       4353.0600      0.28698440
       4354.5300      0.24415570
       4356.0000      0.32168510
       4357.4700      0.32293920
       4358.9400      0.31932340
       4360.4100      0.25389020
       4361.8800      0.23585990
       4363.3500      0.25499540
       4364.8200      0.21394760
       4366.2900      0.21445480
       4367.7600      0.25978760
       4369.2300      0.25098010
       4370.7000      0.27244990
       4372.1700      0.31158610
       4373.6400      0.29262310
       4375.1100      0.26906790
       4376.5800      0.29833370
       4378.0500      0.27883890
       4379.5200      0.29264920
       4380.9900      0.25555120
       4382.4600      0.26025040
       4383.9300      0.28844850
       4385.4000      0.28047910
       4386.8700      0.28301640
       4388.3400      0.28141870
       4389.8100      0.24467150
       4391.2800      0.28938680
       4392.7500      0.24404950
       4394.2200      0.27817450
       4395.6900      0.31803000
       4397.1600      0.28714340
       4398.6300      0.26533950
       4400.1000      0.25712010
       4401.5700      0.27217270
       4403.0400      0.29893750
       4404.5101      0.32301690
       4405.9800      0.29121520
       4407.4500      0.26554990
       4408.9200      0.27888770
       4410.3900      0.27054430
       4411.8600      0.25711210
       4413.3300      0.24000800
       4414.8000      0.24476320
       4416.2700      0.26912590
       4417.7400      0.26987400
       4419.2100      0.24919130
       4420.6800      0.27188610
       4422.1500      0.29645730
       4423.6200      0.28816230
       4425.0900      0.31080270
       4426.5600      0.27606890
       4428.0300      0.27795040
       4429.5000      0.26899510
       4430.9700      0.25645620
       4432.4400      0.27900000
       4433.9100      0.29142820
       4435.3800      0.29983740
       4436.8500      0.28182450
       4438.3200      0.24569120
       4439.7900      0.24374960
       4441.2600      0.25093350
       4442.7300      0.23826060
       4444.2000      0.22701750
       4445.6700      0.25376670
       4447.1400      0.19331720
       4448.6100      0.22757220
       4450.0800      0.24704100
       4451.5500      0.22675130
       4453.0200      0.24313990
       4454.4900      0.23090550
       4455.9600      0.23671510
       4457.4300      0.25095070
       4458.9000      0.27239790
       4460.3700      0.24377830
       4461.8400      0.24418020
       4463.3100      0.25355980
       4464.7800      0.23405990
       4466.2500      0.24634440
       4467.7200      0.27234150
       4469.1900      0.26588190
       4470.6600      0.23896650
       4472.1300      0.23551780
       4473.6000      0.24998560
       4475.0700      0.22140780
       4476.5400      0.25383780
       4478.0100      0.24121790
       4479.4800      0.24110710
       4480.9500      0.21546370
       4482.4200      0.25776520
       4483.8900      0.25526050
       4485.3600      0.29286840
       4486.8300      0.28406790
       4488.3000      0.23751460
       4489.7700      0.25423880
       4491.2400      0.27782540
       4492.7100      0.23989720
       4494.1800      0.25027630
       4495.6500      0.27557160
       4497.1200      0.25988540
       4498.5900      0.28152180
       4500.0600      0.23785900
       4501.5300      0.29317770
       4503.0000      0.28748980
       4504.4700      0.26674190
       4505.9400      0.26507870
       4507.4100      0.30133730
       4508.8800      0.29142730
       4510.3500      0.28273810
       4511.8200      0.29724390
       4513.2900      0.33286490
       4514.7600      0.34233690
       4516.2300      0.31188890
       4517.7000      0.31029620
       4519.1700      0.35799270
       4520.6400      0.36766700
       4522.1100      0.33880950
       4523.5800      0.34053490
       4525.0500      0.35194950
       4526.5200      0.38411380
       4527.9900      0.40379690
       4529.4600      0.39656110
       4530.9300      0.39241090
       4532.4000      0.36359440
       4533.8700      0.34175070
       4535.3400      0.39643600
       4536.8100      0.40019290
       4538.2800      0.44067290
       4539.7500      0.39882090
       4541.2200      0.38305600
       4542.6900      0.40289980
       4544.1600      0.42206300
       4545.6300      0.41707660
       4547.1000      0.42525990
       4548.5700      0.41207650
       4550.0400      0.46191310
       4551.5100      0.42059750
       4552.9800      0.41763930
       4554.4500      0.42307460
       4555.9200      0.42185740
       4557.3900      0.47159250
       4558.8600      0.45116990
       4560.3300      0.44671460
       4561.8000      0.46154260
       4563.2700      0.49293390
       4564.7400      0.49107100
       4566.2100      0.50688200
       4567.6800      0.51147400
       4569.1500      0.44304420
       4570.6200      0.46172640
       4572.0900      0.48013890
       4573.5600      0.48455690
       4575.0300      0.44804710
       4576.5000      0.42371120
       4577.9700      0.47245030
       4579.4400      0.48842090
       4580.9100      0.46176540
       4582.3800      0.46661630
       4583.8500      0.52975270
       4585.3200      0.47724250
       4586.7900      0.44462260
       4588.2600      0.46556000
       4589.7300      0.49515240
       4591.2000      0.51772750
       4592.6700      0.50430020
       4594.1400      0.47920670
       4595.6100      0.47397990
       4597.0800      0.50425130
       4598.5500      0.51966100
       4600.0200      0.49270500
       4601.4900      0.50248710
       4602.9600      0.50581460
       4604.4300      0.45848580
       4605.9000      0.44507060
       4607.3700      0.45327290
       4608.8400      0.45276970
       4610.3100      0.48071960
       4611.7800      0.47819350
       4613.2500      0.46788190
       4614.7200      0.46543850
       4616.1900      0.44787200
       4617.6600      0.47015710
       4619.1300      0.48211570
       4620.6000      0.43625050
       4622.0700      0.43777030
       4623.5400      0.46641410
       4625.0100      0.41562680
       4626.4800      0.41663550
       4627.9500      0.45357300
       4629.4200      0.45637820
       4630.8900      0.46456770
       4632.3600      0.47359470
       4633.8300      0.47371750
       4635.3000      0.46369830
       4636.7700      0.44887480
       4638.2400      0.43786430
       4639.7100      0.45258130
       4641.1800      0.45324190
       4642.6500      0.45335960
       4644.1200      0.47590490
       4645.5900      0.46889230
       4647.0600      0.42829900
       4648.5300      0.42242580
       4650.0000      0.45200740
       4651.4700      0.46627630
       4652.9400      0.45272710
       4654.4100      0.46353600
       4655.8800      0.42029120
       4657.3500      0.44731890
       4658.8200      0.46181910
       4660.2900      0.42519880
       4661.7600      0.42093800
       4663.2300      0.40101660
       4664.7000      0.41875560
       4666.1700      0.42353990
       4667.6400      0.40663780
       4669.1100      0.42206770
       4670.5800      0.43314290
       4672.0500      0.41486540
       4673.5200      0.38916060
       4674.9900      0.40993800
       4676.4600      0.42050750
       4677.9300      0.44225050
       4679.4000      0.42719680
       4680.8700      0.37991040
       4682.3400      0.38477890
       4683.8100      0.40263870
       4685.2800      0.40567830
       4686.7500      0.39125030
       4688.2200      0.39917970
       4689.6900      0.40239100
       4691.1600      0.41109230
       4692.6300      0.40760430
       4694.1000      0.36612460
       4695.5700      0.38793950
       4697.0400      0.36990510
       4698.5100      0.35962340
       4699.9800      0.40105830
       4701.4500      0.42271360
       4702.9200      0.39130100
       4704.3900      0.40194880
       4705.8600      0.41459810
       4707.3300      0.41754170
       4708.8000      0.38180950
       4710.2700      0.37548550
       4711.7400      0.39273920
       4713.2100      0.35846390
       4714.6800      0.36878790
       4716.1500      0.37321130
       4717.6201      0.34930070
       4719.0900      0.35701320
       4720.5600      0.35567470
       4722.0300      0.34794460
       4723.5000      0.33695980
       4724.9700      0.37669410
       4726.4400      0.34474060
       4727.9100      0.33040590
       4729.3800      0.35501810
       4730.8500      0.36092760
       4732.3200      0.32408650
       4733.7900      0.35083410
       4735.2600      0.37290950
       4736.7300      0.36318520
       4738.2000      0.37108810
       4739.6700      0.37819760
       4741.1400      0.34230170
       4742.6100      0.32182970
       4744.0800      0.33492690
       4745.5500      0.33849340
       4747.0200      0.35382260
       4748.4900      0.37817400
       4749.9600      0.34583900
       4751.4300      0.34533330
       4752.9000      0.35029970
       4754.3700      0.35427060
       4755.8400      0.32861420
       4757.3100      0.34968930
       4758.7800      0.34734570
       4760.2500      0.34173800
       4761.7200      0.34691750
       4763.1900      0.36140940
       4764.6600      0.33888490
       4766.1300      0.35612820
       4767.6000      0.37832470
       4769.0700      0.34744680
       4770.5400      0.33488690
       4772.0100      0.36413400
       4773.4800      0.35007350
       4774.9500      0.34022600
       4776.4200      0.33593150
       4777.8900      0.33715730
       4779.3600      0.32098180
       4780.8300      0.30441610
       4782.3000      0.30951380
       4783.7700      0.31043610
       4785.2400      0.31600840
       4786.7100      0.33425320
       4788.1800      0.33558510
       4789.6500      0.33248900
       4791.1200      0.32343360
       4792.5900      0.34736060
       4794.0600      0.33371730
       4795.5300      0.28109150
       4797.0000      0.31754260
       4798.4700      0.31273690
       4799.9400      0.31555080
       4801.4100      0.33541070
       4802.8800      0.32691230
       4804.3500      0.30132150
       4805.8200      0.32445700
       4807.2900      0.33794720
       4808.7600      0.30423140
       4810.2300      0.30014880
       4811.7000      0.30506810
       4813.1700      0.27777740
       4814.6400      0.28039420
       4816.1100      0.31548230
       4817.5800      0.30731290
       4819.0500      0.26996140
       4820.5200      0.27154640
       4821.9900      0.27667810
       4823.4600      0.26065540
       4824.9300      0.25388940
       4826.4000      0.27045690
       4827.8700      0.27446360
       4829.3400      0.30670410
       4830.8100      0.27005650
       4832.2800      0.26508800
       4833.7500      0.26242420
       4835.2200      0.26109860
       4836.6900      0.27783760
       4838.1600      0.27443710
       4839.6300      0.27314910
       4841.1000      0.26607040
       4842.5700      0.28092680
       4844.0400      0.27547790
       4845.5100      0.29084330
       4846.9800      0.28393360
       4848.4500      0.27671050
       4849.9200      0.27663970
       4851.3900      0.27279550
       4852.8600      0.28157790
       4854.3300      0.31000620
       4855.8000      0.31823370
       4857.2700      0.29028350
       4858.7400      0.28915740
       4860.2100      0.33232200
       4861.6800      0.27637210
       4863.1500      0.26555270
       4864.6200      0.30756500
       4866.0900      0.30359470
       4867.5600      0.27768080
       4869.0300      0.30262490
       4870.5000      0.31017690
       4871.9700      0.30225930
       4873.4400      0.31062150
       4874.9100      0.31242230
       4876.3800      0.28236880
       4877.8500      0.29000460
       4879.3200      0.29791220
       4880.7900      0.36768950
       4882.2600      0.41740240
       4883.7300      0.41180960
       4885.2000      0.41538360
       4886.6700      0.37942020
       4888.1400      0.34699350
       4889.6100      0.36343510
       4891.0800      0.38403460
       4892.5500      0.34920790
       4894.0200      0.33183530
       4895.4900      0.33783570
       4896.9600      0.34210730
       4898.4300      0.32344820
       4899.9000      0.33424310
       4901.3700      0.34415390
       4902.8400      0.32889850
       4904.3100      0.34037990
       4905.7800      0.36444710
       4907.2500      0.35841330
       4908.7200      0.34192510
       4910.1900      0.33997390
       4911.6600      0.32655460
       4913.1300      0.32061060
       4914.6000      0.32602030
       4916.0700      0.30796570
       4917.5400      0.30716600
       4919.0100      0.33153050
       4920.4800      0.34719500
       4921.9500      0.33000710
       4923.4200      0.33987870
       4924.8900      0.30460190
       4926.3600      0.30408930
       4927.8300      0.32289130
       4929.3000      0.33212290
       4930.7700      0.32578600
       4932.2400      0.30984410
       4933.7100      0.30312670
       4935.1800      0.32966700
       4936.6500      0.31640130
       4938.1200      0.31064050
       4939.5900      0.31484280
       4941.0600      0.30635770
       4942.5300      0.28660970
       4944.0000      0.28071810
       4945.4700      0.29065150
       4946.9400      0.30584950
       4948.4100      0.28730270
       4949.8800      0.28227840
       4951.3500      0.29936250
       4952.8200      0.29332270
       4954.2900      0.30009680
       4955.7600      0.31016000
       4957.2300      0.31608440
       4958.7000      0.26301540
       4960.1700      0.27267150
       4961.6400      0.32793440
       4963.1100      0.32709640
       4964.5800      0.32265130
       4966.0500      0.34199070
       4967.5200      0.34773910
       4968.9900      0.35934700
       4970.4600      0.36635730
       4971.9300      0.34540910
       4973.4000      0.35297990
       4974.8700      0.34026070
       4976.3400      0.35127770
       4977.8100      0.38441460
       4979.2800      0.39319900
       4980.7500      0.38867770
       4982.2200      0.40553780
       4983.6900      0.41059000
       4985.1600      0.37889400
       4986.6300      0.39587750
       4988.1000      0.39632570
       4989.5700      0.44860300
       4991.0400      0.44137830
       4992.5100      0.38525050
       4993.9800      0.40390290
       4995.4500      0.42135510
       4996.9200      0.42081870
       4998.3900      0.37270950
       4999.8600      0.38861550
       5001.3300      0.43226040
       5002.8000      0.41621430
       5004.2700      0.39975860
       5005.7400      0.41684730
       5007.2100      0.40489940
       5008.6800      0.40007260
       5010.1500      0.39373300
       5011.6200      0.40140720
       5013.0900      0.41193930
       5014.5600      0.42571210
       5016.0300      0.40718600
       5017.5000      0.38499150
       5018.9700      0.38664930
       5020.4400      0.40456850
       5021.9100      0.41209780
       5023.3800      0.40281610
       5024.8500      0.40885280
       5026.3200      0.41154020
       5027.7900      0.45179690
       5029.2600      0.48354940
       5030.7299      0.46219690
       5032.2000      0.42631050
       5033.6700      0.39393180
       5035.1400      0.34377650
       5036.6100      0.32741870
       5038.0800      0.35573380
       5039.5500      0.33155240
       5041.0200      0.30930970
       5042.4900      0.34404700
       5043.9600      0.32553760
       5045.4300      0.29653380
       5046.9000      0.29251620
       5048.3700      0.27877400
       5049.8400      0.29120080
       5051.3100      0.31451540
       5052.7800      0.31393810
       5054.2500      0.30254860
       5055.7200      0.27342330
       5057.1900      0.27124240
       5058.6600      0.28181210
       5060.1300      0.26973360
       5061.6000      0.27584410
       5063.0700      0.26619220
       5064.5400      0.22899350
       5066.0100      0.23511120
       5067.4800      0.26084130
       5068.9500      0.26748350
       5070.4200      0.25281240
       5071.8900      0.24214590
       5073.3600      0.26384710
       5074.8300      0.28353880
       5076.3000      0.25018660
       5077.7700      0.22958860
       5079.2400      0.23109110
       5080.7100      0.25090520
       5082.1800      0.25063640
       5083.6500      0.22638450
       5085.1200      0.24128990
       5086.5900      0.22826870
       5088.0600      0.21381080
       5089.5300      0.21501600
       5091.0000      0.22856770
       5092.4700      0.25398780
       5093.9400      0.24249430
       5095.4100      0.22330660
       5096.8800      0.24418850
       5098.3500      0.24227950
       5099.8200      0.23511840
       5101.2900      0.24641720
       5102.7600      0.22914880
       5104.2300      0.25052910
       5105.7000      0.27318620
       5107.1700      0.24200820
       5108.6400      0.25026340
       5110.1100      0.29617590
       5111.5800      0.29606000
       5113.0500      0.27508950
       5114.5200      0.28461780
       5115.9900      0.28916690
       5117.4600      0.29808960
       5118.9300      0.32007210
       5120.4000      0.31150630
       5121.8700      0.28613330
       5123.3400      0.28427660
       5124.8100      0.30409510
       5126.2800      0.33760420
       5127.7500      0.32515500
       5129.2200      0.30259980
       5130.6900      0.29857980
       5132.1600      0.29834590
       5133.6300      0.32666870
       5135.1000      0.31785690
       5136.5700      0.30590780
       5138.0400      0.32578030
       5139.5100      0.34426970
       5140.9800      0.34644610
       5142.4500      0.34362330
       5143.9200      0.32107300
       5145.3900      0.32778700
       5146.8600      0.35686570
       5148.3300      0.34520610
       5149.8000      0.35290720
       5151.2700      0.37704800
       5152.7400      0.38514720
       5154.2100      0.37542600
       5155.6800      0.35960590
       5157.1500      0.34194340
       5158.6200      0.34082030
       5160.0900      0.36733580
       5161.5600      0.37037050
       5163.0300      0.35746970
       5164.5000      0.37010360
       5165.9700      0.38277490
       5167.4400      0.38205820
       5168.9100      0.35496390
       5170.3800      0.36371810
       5171.8500      0.39883400
       5173.3200      0.39821480
       5174.7900      0.37777800
       5176.2600      0.35455060
       5177.7300      0.35980630
       5179.2000      0.36619830
       5180.6700      0.37362910
       5182.1400      0.39270240
       5183.6100      0.40605320
       5185.0800      0.39046100
       5186.5500      0.36757570
       5188.0200      0.38131900
       5189.4900      0.37522660
       5190.9600      0.38088110
       5192.4300      0.37432910
       5193.9000      0.39228940
       5195.3700      0.40100940
       5196.8400      0.37538400
       5198.3100      0.38334200
       5199.7800      0.37374970
       5201.2500      0.39439210
       5202.7200      0.40325700
       5204.1900      0.38333520
       5205.6600      0.39307590
       5207.1300      0.36212750
       5208.6000      0.35735070
       5210.0700      0.37996790
       5211.5400      0.40299290
       5213.0100      0.40484730
       5214.4800      0.37867770
       5215.9500      0.36697300
       5217.4200      0.36417350
       5218.8900      0.40452350
       5220.3600      0.39500120
       5221.8300      0.39628780
       5223.3000      0.36856060
       5224.7700      0.35695010
       5226.2400      0.39350840
       5227.7100      0.39578380
       5229.1800      0.38162960
       5230.6500      0.39454190
       5232.1200      0.41494150
       5233.5900      0.40780240
       5235.0600      0.38059830
       5236.5300      0.40521110
       5238.0000      0.39947880
       5239.4700      0.39563350
       5240.9400      0.40995220
       5242.4100      0.41148400
       5243.8800      0.41642420
       5245.3500      0.43027950
       5246.8200      0.42375600
       5248.2900      0.39786030
       5249.7600      0.39615820
       5251.2300      0.39608060
       5252.7000      0.40798850
       5254.1700      0.41230420
       5255.6400      0.39546220
       5257.1100      0.42860830
       5258.5800      0.42458270
       5260.0500      0.42821520
       5261.5200      0.42221210
       5262.9900      0.39358440
       5264.4600      0.38768350
       5265.9300      0.42235050
       5267.4000      0.40576440
       5268.8700      0.40782030
       5270.3400      0.40720220
       5271.8100      0.40746260
       5273.2800      0.38548620
       5274.7500      0.42608570
       5276.2200      0.44696580
       5277.6900      0.41759640
       5279.1600      0.37960050
       5280.6300      0.38704340
       5282.1000      0.40017220
       5283.5700      0.41081090
       5285.0400      0.41899390
       5286.5100      0.44097850
       5287.9800      0.42519600
       5289.4500      0.39768720
       5290.9200      0.40012370
       5292.3900      0.40190060
       5293.8600      0.39565570
       5295.3300      0.40985310
       5296.8000      0.42106280
       5298.2700      0.41688380
       5299.7400      0.39371850
       5301.2100      0.39796110
       5302.6800      0.41267500
       5304.1500      0.41240370
       5305.6200      0.45677380
       5307.0900      0.46564470
       5308.5600      0.44424000
       5310.0300      0.44531950
       5311.5000      0.44508270
       5312.9700      0.41186330
       5314.4400      0.41292510
       5315.9100      0.43076170
       5317.3800      0.43867800
       5318.8500      0.42318780
       5320.3200      0.39432830
       5321.7900      0.41411190
       5323.2600      0.41802760
       5324.7300      0.43176070
       5326.2000      0.42798510
       5327.6700      0.40593760
       5329.1400      0.42801660
       5330.6100      0.43361150
       5332.0800      0.41410060
       5333.5500      0.44981320
       5335.0200      0.42289120
       5336.4900      0.41895220
       5337.9600      0.43070330
       5339.4300      0.42985910
       5340.9000      0.42701800
       5342.3700      0.39871410
       5343.8399      0.40585390
       5345.3100      0.43588910
       5346.7800      0.42725620
       5348.2500      0.41075830
       5349.7200      0.40447420
       5351.1900      0.43886530
       5352.6600      0.41990390
       5354.1300      0.40746580
       5355.6000      0.41387790
       5357.0700      0.42577030
       5358.5400      0.42356310
       5360.0100      0.40965830
       5361.4800      0.39115230
       5362.9500      0.40969930
       5364.4200      0.39324880
       5365.8900      0.40826940
       5367.3600      0.41139190
       5368.8300      0.41821870
       5370.3000      0.41991500
       5371.7700      0.41425730
       5373.2400      0.42830450
       5374.7100      0.42879080
       5376.1800      0.41459000
       5377.6500      0.41954800
       5379.1200      0.43515010
       5380.5900      0.43685050
       5382.0600      0.42810650
       5383.5300      0.40463420
       5385.0000      0.38198480
       5386.4700      0.40438600
       5387.9400      0.39860160
       5389.4100      0.38641630
       5390.8800      0.41383670
       5392.3500      0.40643100
       5393.8200      0.41855810
       5395.2900      0.41683620
       5396.7600      0.40589510
       5398.2300      0.40112400
       5399.7000      0.40796210
       5401.1700      0.41114350
       5402.6400      0.39554780
       5404.1100      0.39796060
       5405.5800      0.41364400
       5407.0500      0.41565120
       5408.5200      0.38718540
       5409.9900      0.37716490
       5411.4600      0.39959290
       5412.9300      0.41911580
       5414.4000      0.42841760
       5415.8700      0.43722650
       5417.3400      0.41410960
       5418.8100      0.37827620
       5420.2800      0.38681930
       5421.7500      0.42535790
       5423.2200      0.39781350
       5424.6900      0.38545560
       5426.1600      0.37821360
       5427.6300      0.37039120
       5429.1000      0.40460450
       5430.5700      0.40644040
       5432.0400      0.37141370
       5433.5100      0.36273710
       5434.9800      0.37046350
       5436.4500      0.37950900
       5437.9200      0.38617290
       5439.3900      0.36724160
       5440.8600      0.36492380
       5442.3300      0.34937140
       5443.8000      0.32741870
       5445.2700      0.33995360
       5446.7400      0.32864170
       5448.2100      0.32415210
       5449.6800      0.33158230
       5451.1500      0.31291690
       5452.6200      0.30496540
       5454.0900      0.30313970
       5455.5600      0.29188850
       5457.0300      0.31823690
       5458.5000      0.33632900
       5459.9700      0.33951940
       5461.4400      0.34446140
       5462.9100      0.33595730
       5464.3800      0.32219050
       5465.8500      0.29670020
       5467.3200      0.30073300
       5468.7900      0.30186090
       5470.2600      0.28552630
       5471.7300      0.29484700
       5473.2000      0.30514200
       5474.6700      0.29614180
       5476.1400      0.29329550
       5477.6100      0.30971650
       5479.0800      0.31885400
       5480.5500      0.32369560
       5482.0200      0.33176740
       5483.4900      0.33512910
       5484.9600      0.34074240
       5486.4300      0.35562530
       5487.9000      0.37210320
       5489.3700      0.36601330
       5490.8400      0.34807640
       5492.3100      0.34751890
       5493.7800      0.34905880
       5495.2500      0.34649540
       5496.7200      0.35574370
       5498.1900      0.37644540
       5499.6600      0.38386110
       5501.1300      0.37267070
       5502.6000      0.36483430
       5504.0700      0.39317420
       5505.5400      0.43111070
       5507.0100      0.41691910
       5508.4800      0.39443150
       5509.9500      0.40432230
       5511.4200      0.42689590
       5512.8900      0.43753720
       5514.3600      0.44789850
       5515.8300      0.46256810
       5517.3000      0.45357660
       5518.7700      0.46066180
       5520.2400      0.48718030
       5521.7100      0.48953260
       5523.1800      0.50457710
       5524.6500      0.50529630
       5526.1200      0.47699240
       5527.5900      0.49738180
       5529.0600      0.52212010
       5530.5300      0.50798580
       5532.0000      0.50445620
       5533.4700      0.52178280
       5534.9400      0.52391550
       5536.4100      0.53243870
       5537.8800      0.53500680
       5539.3500      0.54426430
       5540.8200      0.54609810
       5542.2900      0.53816240
       5543.7600      0.51931080
       5545.2300      0.52293600
       5546.7000      0.53146230
       5548.1700      0.55229420
       5549.6400      0.54721370
       5551.1100      0.53485600
       5552.5800      0.53008400
       5554.0500      0.51395630
       5555.5200      0.52224740
       5556.9900      0.51893690
       5558.4600      0.51328300
       5559.9300      0.50163730
       5561.4000      0.50909530
       5562.8700      0.52902950
       5564.3400      0.53227810
       5565.8100      0.51144960
       5567.2800      0.50862410
       5568.7500      0.51250960
       5570.2200      0.49792100
       5571.6900      0.40131680
       5573.1600      0.34720320
       5574.6300      0.42472800
       5576.1000      0.42685510
       5577.5700      0.48677520
       5579.0400      0.49716800
       5580.5100      0.39118890
       5581.9800      0.41082480
       5583.4500      0.42354230
       5584.9200      0.41547770
       5586.3900      0.41718280
       5587.8600      0.40778720
       5589.3300      0.39830320
       5590.8000      0.38091550
       5592.2700      0.37934740
       5593.7400      0.37645440
       5595.2100      0.38889610
       5596.6800      0.38335980
       5598.1500      0.36324100
       5599.6200      0.37323550
       5601.0900      0.36040090
       5602.5600      0.34417770
       5604.0300      0.34249420
       5605.5000      0.32746940
       5606.9700      0.31150530
       5608.4400      0.32106800
       5609.9100      0.32888390
       5611.3800      0.33741020
       5612.8500      0.36258440
       5614.3200      0.34758010
       5615.7900      0.33449120
       5617.2600      0.31959020
       5618.7300      0.30307400
       5620.2000      0.32038000
       5621.6700      0.33785280
       5623.1400      0.36425680
       5624.6100      0.34387530
       5626.0800      0.32128520
       5627.5500      0.32726780
       5629.0200      0.31942560
       5630.4900      0.31388740
       5631.9600      0.33736210
       5633.4300      0.37169860
       5634.9000      0.37719390
       5636.3700      0.32135530
       5637.8400      0.31391480
       5639.3100      0.34414910
       5640.7800      0.34032680
       5642.2500      0.35649780
       5643.7200      0.37273250
       5645.1900      0.36184420
       5646.6600      0.34479800
       5648.1300      0.34897970
       5649.6000      0.35083470
       5651.0700      0.37512430
       5652.5400      0.38361050
       5654.0100      0.37726300
       5655.4800      0.37757070
       5656.9499      0.34373520
       5658.4200      0.35181490
       5659.8900      0.35636720
       5661.3600      0.34534200
       5662.8300      0.34975040
       5664.3000      0.35120900
       5665.7700      0.31633520
       5667.2400      0.29689850
       5668.7100      0.32922740
       5670.1800      0.34051820
       5671.6500      0.32796320
       5673.1200      0.31869710
       5674.5900      0.29155450
       5676.0600      0.26255190
       5677.5300      0.26193620
       5679.0000      0.28037960
       5680.4700      0.29779820
       5681.9400      0.28092620
       5683.4100      0.25569640
       5684.8800      0.23790770
       5686.3500      0.25802550
       5687.8200      0.26288770
       5689.2900      0.23097960
       5690.7600      0.23483100
       5692.2300      0.23976100
       5693.7000      0.22551590
       5695.1700      0.22237280
       5696.6400      0.20516260
       5698.1100      0.19533110
       5699.5800      0.19559710
       5701.0500      0.19237000
       5702.5200      0.19259370
       5703.9900      0.19453580
       5705.4600      0.20391480
       5706.9300      0.21170060
       5708.4000      0.19991090
       5709.8700      0.20641250
       5711.3400      0.22355750
       5712.8100      0.20971560
       5714.2800      0.18300260
       5715.7500      0.17869390
       5717.2200      0.18428870
       5718.6900      0.18738790
       5720.1600      0.21905500
       5721.6300      0.22442490
       5723.1000      0.18241110
       5724.5700      0.15699430
       5726.0400      0.16695410
       5727.5100      0.19089910
       5728.9800      0.18842870
       5730.4500      0.16289820
       5731.9200      0.16930240
       5733.3900      0.18935180
       5734.8600      0.18686770
       5736.3300      0.17837990
       5737.8000      0.17754000
       5739.2700      0.18071600
       5740.7400      0.17813200
       5742.2100      0.16667740
       5743.6800      0.16864720
       5745.1500      0.17941320
       5746.6200      0.19068210
       5748.0900      0.18626660
       5749.5600      0.16613320
       5751.0300      0.15837650
       5752.5000      0.14548560
       5753.9700      0.15248010
       5755.4400      0.17329810
       5756.9100      0.16078600
       5758.3800      0.14820840
       5759.8500      0.14379680
       5761.3200      0.13924460
       5762.7900      0.16538520
       5764.2600      0.17715850
       5765.7300      0.15890820
       5767.2000      0.17918200
       5768.6700      0.19777220
       5770.1400      0.16487330
       5771.6100      0.13997170
       5773.0800      0.15030740
       5774.5500      0.15599870
       5776.0200      0.14378440
       5777.4900      0.13751480
       5778.9600      0.13130900
       5780.4300      0.13571110
       5781.9000      0.17160010
       5783.3700      0.18603040
       5784.8400      0.16546730
       5786.3100      0.15261990
       5787.7800      0.16292180
       5789.2500      0.13959130
       5790.7200      0.12499260
       5792.1900      0.14941500
       5793.6600      0.17093590
       5795.1300      0.15604970
       5796.6000      0.13627330
       5798.0700      0.14558600
       5799.5400      0.14644270
       5801.0100      0.14238480
       5802.4800      0.14888150
       5803.9500      0.14982350
       5805.4200      0.14653960
       5806.8900      0.16087230
       5808.3600      0.18608990
       5809.8300      0.17793670
       5811.3000      0.15741570
       5812.7700      0.16980880
       5814.2400      0.17719500
       5815.7100      0.18129470
       5817.1800      0.17140540
       5818.6500      0.17871810
       5820.1200      0.19163060
       5821.5900      0.16604520
       5823.0600      0.16756970
       5824.5300      0.19082270
       5826.0000      0.19291520
       5827.4700      0.19116030
       5828.9400      0.18978630
       5830.4100      0.20771380
       5831.8800      0.23470280
       5833.3500      0.21815880
       5834.8200      0.19541410
       5836.2900      0.22178300
       5837.7600      0.22628540
       5839.2300      0.20596080
       5840.7000      0.21049740
       5842.1700      0.24035990
       5843.6400      0.24827870
       5845.1100      0.26336660
       5846.5800      0.26419790
       5848.0500      0.25986050
       5849.5200      0.26871690
       5850.9900      0.28099370
       5852.4600      0.25882150
       5853.9300      0.24674450
       5855.4000      0.28705920
       5856.8700      0.28600520
       5858.3400      0.25215940
       5859.8100      0.27039430
       5861.2800      0.30154410
       5862.7500      0.32030900
       5864.2200      0.31448140
       5865.6900      0.30362840
       5867.1600      0.31970320
       5868.6300      0.32157730
       5870.1000      0.31121520
       5871.5700      0.32184980
       5873.0400      0.33094820
       5874.5100      0.33337920
       5875.9800      0.32394880
       5877.4500      0.32141810
       5878.9200      0.31223310
       5880.3900      0.31876840
       5881.8600      0.32966860
       5883.3300      0.33107420
       5884.8000      0.30951050
       5886.2700      0.29394450
       5887.7400      0.31522200
       5889.2100      0.37324550
       5890.6800      0.36452820
       5892.1500      0.34002650
       5893.6200      0.36121770
       5895.0900      0.38749280
       5896.5600      0.40411380
       5898.0300      0.39473860
       5899.5000      0.39819670
       5900.9700      0.38791230
       5902.4400      0.37543090
       5903.9100      0.37845720
       5905.3800      0.38763750
       5906.8500      0.39507390
       5908.3200      0.38312700
       5909.7900      0.39029180
       5911.2600      0.40792720
       5912.7300      0.39635700
       5914.2000      0.34522440
       5915.6700      0.32941450
       5917.1400      0.36228470
       5918.6100      0.36994860
       5920.0800      0.36501290
       5921.5500      0.36821810
       5923.0200      0.37134270
       5924.4900      0.36515870
       5925.9600      0.37041240
       5927.4300      0.37890120
       5928.9000      0.37369410
       5930.3700      0.37720950
       5931.8400      0.38471420
       5933.3100      0.37557440
       5934.7800      0.34930350
       5936.2500      0.34485860
       5937.7200      0.37256170
       5939.1900      0.36867360
       5940.6600      0.33965020
       5942.1300      0.35120590
       5943.6000      0.36656150
       5945.0700      0.36664930
       5946.5400      0.37937270
       5948.0100      0.35206200
       5949.4800      0.33486520
       5950.9500      0.36594620
       5952.4200      0.36632000
       5953.8900      0.35007130
       5955.3600      0.34743250
       5956.8300      0.34206300
       5958.3000      0.31930920
       5959.7700      0.32568310
       5961.2400      0.34818720
       5962.7100      0.33033990
       5964.1800      0.31806320
       5965.6500      0.32067920
       5967.1200      0.32584360
       5968.5900      0.33155660
       5970.0599      0.33096670
       5971.5300      0.33369440
       5973.0000      0.34179490
       5974.4700      0.33567360
       5975.9400      0.31287320
       5977.4100      0.30506070
       5978.8800      0.31800610
       5980.3500      0.32903400
       5981.8200      0.31506280
       5983.2900      0.31652090
       5984.7600      0.32011660
       5986.2300      0.30171840
       5987.7000      0.29108420
       5989.1700      0.28011820
       5990.6400      0.29160840
       5992.1100      0.32761620
       5993.5800      0.34305440
       5995.0500      0.32744690
       5996.5200      0.31990820
       5997.9900      0.32857120
       5999.4600      0.32128860
       6000.9300      0.30055930
       6002.4000      0.29858760
       6003.8700      0.30406510
       6005.3400      0.28273220
       6006.8100      0.27775650
       6008.2800      0.29631640
       6009.7500      0.28938040
       6011.2200      0.27921320
       6012.6900      0.29754010
       6014.1600      0.31252240
       6015.6300      0.29463250
       6017.1000      0.27426780
       6018.5700      0.26806700
       6020.0400      0.26948580
       6021.5100      0.29284270
       6022.9800      0.28781560
       6024.4500      0.28155350
       6025.9200      0.28517960
       6027.3900      0.27284350
       6028.8600      0.28520490
       6030.3300      0.25321910
       6031.8000      0.23368830
       6033.2700      0.26876770
       6034.7400      0.27649870
       6036.2100      0.27189520
       6037.6800      0.27153530
       6039.1500      0.27044570
       6040.6200      0.27993920
       6042.0900      0.29414410
       6043.5600      0.27539770
       6045.0300      0.24315710
       6046.5000      0.23264350
       6047.9700      0.25468090
       6049.4400      0.26429910
       6050.9100      0.26257840
       6052.3800      0.25898400
       6053.8500      0.22873080
       6055.3200      0.22602870
       6056.7900      0.24171570
       6058.2600      0.24843750
       6059.7300      0.25779000
       6061.2000      0.25969440
       6062.6700      0.26501640
       6064.1400      0.27184870
       6065.6100      0.26103030
       6067.0800      0.24134160
       6068.5500      0.22517690
       6070.0200      0.22362450
       6071.4900      0.21793740
       6072.9600      0.22348760
       6074.4300      0.24323290
       6075.9000      0.25082800
       6077.3700      0.24270440
       6078.8400      0.21984280
       6080.3100      0.22596980
       6081.7800      0.25124170
       6083.2500      0.25995780
       6084.7200      0.25530590
       6086.1900      0.25015080
       6087.6600      0.23873000
       6089.1300      0.24333840
       6090.6000      0.25634010
       6092.0700      0.25804300
       6093.5400      0.25324670
       6095.0100      0.25024480
       6096.4800      0.24341210
       6097.9500      0.24445970
       6099.4200      0.25372960
       6100.8900      0.24926080
       6102.3600      0.25193080
       6103.8300      0.25259860
       6105.3000      0.25133120
       6106.7700      0.25936540
       6108.2400      0.25346150
       6109.7100      0.23026060
       6111.1800      0.23982220
       6112.6500      0.25167050
       6114.1200      0.25344640
       6115.5900      0.26018030
       6117.0600      0.26770840
       6118.5300      0.28116130
       6120.0000      0.28178510
       6121.4700      0.27054410
       6122.9400      0.25441020
       6124.4100      0.24438950
       6125.8800      0.25363610
       6127.3500      0.28704960
       6128.8200      0.29830930
       6130.2900      0.27699920
       6131.7600      0.25420720
       6133.2300      0.24718180
       6134.7000      0.25251640
       6136.1700      0.25353000
       6137.6400      0.27952990
       6139.1100      0.29829360
       6140.5800      0.27656150
       6142.0500      0.26599500
       6143.5200      0.27115400
       6144.9900      0.26840670
       6146.4600      0.26028540
       6147.9300      0.26251730
       6149.4000      0.27394880
       6150.8700      0.25783000
       6152.3400      0.24016140
       6153.8100      0.26324120
       6155.2800      0.27910710
       6156.7500      0.26906370
       6158.2200      0.26625980
       6159.6900      0.26750870
       6161.1600      0.25589680
       6162.6300      0.24261520
       6164.1000      0.23681810
       6165.5700      0.24377330
       6167.0400      0.26090650
       6168.5100      0.25148650
       6169.9800      0.23246940
       6171.4500      0.25185010
       6172.9200      0.27130770
       6174.3900      0.27350410
       6175.8600      0.28259070
       6177.3300      0.27778670
       6178.8000      0.27027470
       6180.2700      0.27116030
       6181.7400      0.28111910
       6183.2100      0.30324240
       6184.6800      0.28583180
       6186.1500      0.27184630
       6187.6200      0.29229010
       6189.0900      0.28244280
       6190.5600      0.28370200
       6192.0300      0.31082370
       6193.5000      0.32236820
       6194.9700      0.31701040
       6196.4400      0.30863480
       6197.9100      0.30643330
       6199.3800      0.31577040
       6200.8500      0.32636430
       6202.3200      0.31792510
       6203.7900      0.32893580
       6205.2600      0.35534670
       6206.7300      0.35205750
       6208.2000      0.35545840
       6209.6700      0.38070940
       6211.1400      0.38533020
       6212.6100      0.37644870
       6214.0800      0.37882190
       6215.5500      0.40980880
       6217.0200      0.43292540
       6218.4900      0.42736660
       6219.9600      0.43582810
       6221.4300      0.45386960
       6222.9000      0.46050550
       6224.3700      0.47266840
       6225.8400      0.49185080
       6227.3100      0.54540730
       6228.7800      0.59394330
       6230.2500      0.57787430
       6231.7200      0.58059690
       6233.1900      0.61527000
       6234.6600      0.63210750
       6236.1300      0.64422460
       6237.6000      0.67394360
       6239.0700      0.68215350
       6240.5400      0.67366820
       6242.0100      0.69169940
       6243.4800      0.70239340
       6244.9500      0.72383610
       6246.4200      0.75434850
       6247.8900      0.73926930
       6249.3600      0.75694200
       6250.8300      0.79396920
       6252.3000      0.78279820
       6253.7700      0.77784600
       6255.2400      0.79221490
       6256.7100      0.80179920
       6258.1800      0.83537330
       6259.6500      0.83785680
       6261.1200      0.80282730
       6262.5900      0.81620750
       6264.0600      0.82223640
       6265.5300      0.81589670
       6267.0000      0.81124600
       6268.4700      0.81710590
       6269.9400      0.81506960
       6271.4100      0.81733320
       6272.8800      0.84044170
       6274.3500      0.82204400
       6275.8200      0.83027800
       6277.2900      0.86428180
       6278.7600      0.90961130
       6280.2300      0.94921110
       6281.7000      0.92495110
       6283.1699      0.91550420
       6284.6400      0.92976300
       6286.1100      0.91126000
       6287.5800      0.91606120
       6289.0500      0.93706500
       6290.5200      0.97080970
       6291.9900       1.0036890
       6293.4600      0.95187490
       6294.9300      0.95465830
       6296.4000      0.99986810
       6297.8700      0.99193540
       6299.3400       1.0057880
       6300.8100       1.0702240
       6302.2800       1.1184890
       6303.7500       1.0699950
       6305.2200       1.0405040
       6306.6900       1.0193010
       6308.1600       1.0230060
       6309.6300       1.0380000
       6311.1000       1.0146330
       6312.5700      0.98819560
       6314.0400      0.99432950
       6315.5100       1.0315210
       6316.9800       1.0113820
       6318.4500       1.0067540
       6319.9200       1.0170760
       6321.3900      0.99182990
       6322.8600      0.96763630
       6324.3300      0.95442650
       6325.8000      0.95117720
       6327.2700      0.94259180
       6328.7400      0.95414080
       6330.2100      0.98487820
       6331.6800      0.97293700
       6333.1500      0.90998240
       6334.6200      0.88060060
       6336.0900      0.88263920
       6337.5600      0.88843370
       6339.0300      0.88936170
       6340.5000      0.89394990
       6341.9700      0.91681400
       6343.4400      0.93336980
       6344.9100      0.93374560
       6346.3800      0.91445140
       6347.8500      0.89065370
       6349.3200      0.88065100
       6350.7900      0.86602210
       6352.2600      0.86596220
       6353.7300      0.85778990
       6355.2000      0.85213890
       6356.6700      0.86874030
       6358.1400      0.84162410
       6359.6100      0.81600230
       6361.0800      0.83645360
       6362.5500      0.84347030
       6364.0200      0.84341610
       6365.4900      0.83201150
       6366.9600      0.80397270
       6368.4300      0.81681920
       6369.9000      0.84294950
       6371.3700      0.84520620
       6372.8400      0.81357520
       6374.3100      0.76763440
       6375.7800      0.76294650
       6377.2500      0.77119590
       6378.7200      0.76575810
       6380.1900      0.75003740
       6381.6600      0.72283820
       6383.1300      0.69937930
       6384.6000      0.68030980
       6386.0700      0.65771530
       6387.5400      0.65898610
       6389.0100      0.66376450
       6390.4800      0.65544410
       6391.9500      0.66763870
       6393.4200      0.66592910
       6394.8900      0.65663430
       6396.3600      0.64504620
       6397.8300      0.61893680
       6399.3000      0.59691080
       6400.7700      0.58479790
       6402.2400      0.58340070
       6403.7100      0.58897260
       6405.1800      0.60259380
       6406.6500      0.60245870
       6408.1200      0.57000460
       6409.5900      0.55361940
       6411.0600      0.55942330
       6412.5300      0.57334750
       6414.0000      0.54512900
       6415.4700      0.52046260
       6416.9400      0.53405210
       6418.4100      0.54422930
       6419.8800      0.54896590
       6421.3500      0.54477970
       6422.8200      0.54501860
       6424.2900      0.51600970
       6425.7600      0.51195160
       6427.2300      0.50841220
       6428.7000      0.49623410
       6430.1700      0.50201120
       6431.6400      0.49790370
       6433.1100      0.49935220
       6434.5800      0.48719900
       6436.0500      0.48748530
       6437.5200      0.49209860
       6438.9900      0.49083790
       6440.4600      0.47757580
       6441.9300      0.47115340
       6443.4000      0.47381460
       6444.8700      0.47485180
       6446.3400      0.47685750
       6447.8100      0.46076780
       6449.2800      0.44003640
       6450.7500      0.45292070
       6452.2200      0.46628860
       6453.6900      0.47204010
       6455.1600      0.45342220
       6456.6300      0.45450950
       6458.1000      0.48835570
       6459.5700      0.46058860
       6461.0400      0.43330630
       6462.5100      0.43371600
       6463.9800      0.43063480
       6465.4500      0.45636210
       6466.9200      0.44838530
       6468.3900      0.39739120
       6469.8600      0.40467750
       6471.3300      0.44102690
       6472.8000      0.42894740
       6474.2700      0.42900660
       6475.7400      0.44046550
       6477.2100      0.42360500
       6478.6800      0.42645090
       6480.1500      0.41235960
       6481.6200      0.39727840
       6483.0900      0.41697310
       6484.5600      0.41441330
       6486.0300      0.39384500
       6487.5000      0.39422290
       6488.9700      0.41025660
       6490.4400      0.40487150
       6491.9100      0.39462140
       6493.3800      0.38358110
       6494.8500      0.35957370
       6496.3200      0.36162130
       6497.7900      0.39235260
       6499.2600      0.38585270
       6500.7300      0.37656340
       6502.2000      0.38876060
       6503.6700      0.40085830
       6505.1400      0.39810630
       6506.6100      0.40239010
       6508.0800      0.40744530
       6509.5500      0.38991540
       6511.0200      0.38226820
       6512.4900      0.37240240
       6513.9600      0.39006700
       6515.4300      0.38192200
       6516.9000      0.36439390
       6518.3700      0.36550940
       6519.8400      0.34378420
       6521.3100      0.33432310
       6522.7800      0.35442900
       6524.2500      0.35340600
       6525.7200      0.35315720
       6527.1900      0.38155160
       6528.6600      0.37048600
       6530.1300      0.34382520
       6531.6000      0.32572870
       6533.0700      0.32170810
       6534.5400      0.33800840
       6536.0100      0.34550680
       6537.4800      0.33406990
       6538.9500      0.32819680
       6540.4200      0.33478280
       6541.8900      0.32812370
       6543.3600      0.31895870
       6544.8300      0.32202670
       6546.3000      0.33151300
       6547.7700      0.32308530
       6549.2400      0.30523320
       6550.7100      0.31432290
       6552.1800      0.30643380
       6553.6500      0.30450170
       6555.1200      0.32447580
       6556.5900      0.33830570
       6558.0600      0.33133910
       6559.5300      0.31521060
       6561.0000      0.32415050
       6562.4700      0.32612680
       6563.9400      0.30995860
       6565.4100      0.28711930
       6566.8800      0.28987520
       6568.3500      0.31819830
       6569.8200      0.30983910
       6571.2900      0.29062060
       6572.7600      0.30033030
       6574.2300      0.31325170
       6575.7000      0.33444620
       6577.1700      0.34614180
       6578.6400      0.33359710
       6580.1100      0.33959260
       6581.5800      0.34540490
       6583.0500      0.33336110
       6584.5200      0.30871590
       6585.9900      0.29948720
       6587.4600      0.33916670
       6588.9300      0.38969670
       6590.4000      0.45248560
       6591.8700      0.53363790
       6593.3400      0.60276350
       6594.8100      0.61825950
       6596.2799      0.51341310
       6597.7500      0.36344440
       6599.2200      0.30887620
       6600.6900      0.30440770
       6602.1600      0.29161450
       6603.6300      0.28883630
       6605.1000      0.30029340
       6606.5700      0.30814320
       6608.0400      0.30268500
       6609.5100      0.28763850
       6610.9800      0.30926230
       6612.4500      0.36285690
       6613.9200      0.38700240
       6615.3900      0.40789340
       6616.8600      0.37050350
       6618.3300      0.31442250
       6619.8000      0.28483770
       6621.2700      0.27209470
       6622.7400      0.27748000
       6624.2100      0.30606530
       6625.6800      0.31379870
       6627.1500      0.29490990
       6628.6200      0.28551140
       6630.0900      0.27541260
       6631.5600      0.25940700
       6633.0300      0.25703030
       6634.5000      0.28440700
       6635.9700      0.27257690
       6637.4400      0.25654390
       6638.9100      0.26573020
       6640.3800      0.26382120
       6641.8500      0.25372260
       6643.3200      0.25905390
       6644.7900      0.26047750
       6646.2600      0.25321950
       6647.7300      0.25857440
       6649.2000      0.25638770
       6650.6700      0.25475390
       6652.1400      0.24592060
       6653.6100      0.26329030
       6655.0800      0.28592790
       6656.5500      0.27461600
       6658.0200      0.23987350
       6659.4900      0.23492370
       6660.9600      0.23453310
       6662.4300      0.23761690
       6663.9000      0.24493090
       6665.3700      0.25894910
       6666.8400      0.24437210
       6668.3100      0.23673690
       6669.7800      0.25605150
       6671.2500      0.25370740
       6672.7200      0.22982240
       6674.1900      0.25404330
       6675.6600      0.24804750
       6677.1300      0.22462790
       6678.6000      0.22462630
       6680.0700      0.24564630
       6681.5400      0.25993700
       6683.0100      0.24036270
       6684.4800      0.25605720
       6685.9500      0.25337730
       6687.4200      0.24131160
       6688.8900      0.23353510
       6690.3600      0.23245070
       6691.8300      0.23744890
       6693.3000      0.24201330
       6694.7700      0.26071990
       6696.2400      0.24509640
       6697.7100      0.22017390
       6699.1800      0.22485130
       6700.6500      0.22736210
       6702.1200      0.21426830
       6703.5900      0.23079070
       6705.0600      0.22514310
       6706.5300      0.22630110
       6708.0000      0.22951700
       6709.4700      0.22170600
       6710.9400      0.23208790
       6712.4100      0.22618970
       6713.8800      0.22111470
       6715.3500      0.22220160
       6716.8200      0.22820180
       6718.2900      0.23779810
       6719.7600      0.22743390
       6721.2300      0.20834670
       6722.7000      0.21704950
       6724.1700      0.22658600
       6725.6400      0.20222660
       6727.1100      0.19208870
       6728.5800      0.18917620
       6730.0500      0.19039730
       6731.5200      0.20250300
       6732.9900      0.21124790
       6734.4600      0.20828430
       6735.9300      0.20558830
       6737.4000      0.19837220
       6738.8700      0.18210280
       6740.3400      0.18555100
       6741.8100      0.18550530
       6743.2800      0.20040970
       6744.7500      0.22475170
       6746.2200      0.24488350
       6747.6900      0.26122260
       6749.1600      0.26105730
       6750.6300      0.23650550
       6752.1000      0.18014390
       6753.5700      0.16011420
       6755.0400      0.17825820
       6756.5100      0.18198890
       6757.9800      0.19150440
       6759.4500      0.22469140
       6760.9200      0.24141080
       6762.3900      0.24366320
       6763.8600      0.23541880
       6765.3300      0.20860520
       6766.8000      0.19129130
       6768.2700      0.18623470
       6769.7400      0.17698550
       6771.2100      0.19137300
       6772.6800      0.19169280
       6774.1500      0.17814540
       6775.6200      0.18330340
       6777.0900      0.19753600
       6778.5600      0.18536180
       6780.0300      0.15452820
       6781.5000      0.18087450
       6782.9700      0.18968480
       6784.4400      0.17787850
       6785.9100      0.18598440
       6787.3800      0.19179560
       6788.8500      0.20647550
       6790.3200      0.20162740
       6791.7900      0.17559080
       6793.2600      0.18520280
       6794.7300      0.18603890
       6796.2000      0.17593560
       6797.6700      0.18457220
       6799.1400      0.17899700
       6800.6100      0.18348950
       6802.0800      0.19377250
       6803.5500      0.18711470
       6805.0200      0.17749700
       6806.4900      0.17207610
       6807.9600      0.17982260
       6809.4300      0.18117050
       6810.9000      0.18125610
       6812.3700      0.18303740
       6813.8400      0.17493080
       6815.3100      0.17976210
       6816.7800      0.17952500
       6818.2500      0.18495750
       6819.7200      0.18780270
       6821.1900      0.18847240
       6822.6600      0.18872560
       6824.1300      0.17092870
       6825.6000      0.15784240
       6827.0700      0.18351310
       6828.5400      0.19210030
       6830.0100      0.18154310
       6831.4800      0.19296920
       6832.9500      0.18331150
       6834.4200      0.15945900
       6835.8900      0.14956530
       6837.3600      0.16369860
       6838.8300      0.18347620
       6840.3000      0.19103100
       6841.7700      0.18977820
       6843.2400      0.19755010
       6844.7100      0.17126750
       6846.1800      0.16684050
       6847.6500      0.18394410
       6849.1200      0.17611650
       6850.5900      0.18709290
       6852.0600      0.19215890
       6853.5300      0.17654130
       6855.0000      0.16545530
       6856.4700      0.15594450
       6857.9400      0.15702640
       6859.4100      0.17993870
       6860.8800      0.17045900
       6862.3500      0.16815720
       6863.8200      0.18616500
       6865.2900      0.15626210
       6866.7600      0.18028900
       6868.2300      0.16928390
       6869.7000      0.13231870
       6871.1700      0.13901800
       6872.6400      0.16996700
       6874.1100      0.17969500
       6875.5800      0.15365790
       6877.0500      0.16368270
       6878.5200      0.18226960
       6879.9900      0.16476150
       6881.4600      0.15945270
       6882.9300      0.15574340
       6884.4000      0.16357080
       6885.8700      0.16860570
       6887.3400      0.16987520
       6888.8100      0.15876550
       6890.2800      0.13885000
       6891.7500      0.15035030
       6893.2200      0.18465230
       6894.6900      0.18268140
       6896.1600      0.18050350
       6897.6300      0.17545920
       6899.1000      0.16852920
       6900.5700      0.14057660
       6902.0400      0.16608950
       6903.5100      0.18521050
       6904.9800      0.16171620
       6906.4500      0.16561540
       6907.9200      0.16031960
       6909.3899      0.15144380
       6910.8600      0.14990870
       6912.3300      0.15506430
       6913.8000      0.15972980
       6915.2700      0.14536550
       6916.7400      0.16190680
       6918.2100      0.13200950
       6919.6800      0.11137060
       6921.1500      0.15808160
       6922.6200      0.17715350
       6924.0900      0.16421350
       6925.5600      0.16169400
       6927.0300      0.13251310
       6928.5000      0.14638260
       6929.9700      0.14392070
       6931.4400      0.14222700
       6932.9100      0.16644520
       6934.3800      0.16866660
       6935.8500      0.15640270
       6937.3200      0.16045450
       6938.7900      0.19807620
       6940.2600      0.17794640
       6941.7300      0.15927250
       6943.2000      0.15974620
       6944.6700      0.15313560
       6946.1400      0.14135650
       6947.6100      0.16713160
       6949.0800      0.16817930
       6950.5500      0.12479580
       6952.0200      0.15373010
       6953.4900      0.16773340
       6954.9600      0.17544510
       6956.4300      0.18316970
       6957.9000      0.16884360
       6959.3700      0.18151160
       6960.8400      0.18256710
       6962.3100      0.16950320
       6963.7800      0.17826660
       6965.2500      0.19412550
       6966.7200      0.17881100
       6968.1900      0.17783600
       6969.6600      0.16937800
       6971.1300      0.20732300
       6972.6000      0.19859210
       6974.0700      0.21383530
       6975.5400      0.21505870
       6977.0100      0.19387530
       6978.4800      0.18514580
       6979.9500      0.21088640
       6981.4200      0.17362560
       6982.8900      0.19110730
       6984.3600      0.19267250
       6985.8300      0.18075250
       6987.3000      0.16938650
       6988.7700      0.17903650
       6990.2400      0.17799310
       6991.7100      0.19221030
       6993.1800      0.21639770
       6994.6500      0.18641830
       6996.1200      0.19887780
       6997.5900      0.19704410
       6999.0600      0.19219420
       7000.5300      0.19444660
       7002.0000      0.19235930
       7003.4700      0.19345520
       7004.9400      0.19792130
       7006.4100      0.19478980
       7007.8800      0.19115260
       7009.3500      0.20614880
       7010.8200      0.23624010
       7012.2900      0.22647000
       7013.7600      0.21590090
       7015.2300      0.24164090
       7016.7000      0.25781220
       7018.1700      0.21741160
       7019.6400      0.21246970
       7021.1100      0.20563580
       7022.5800      0.20180400
       7024.0500      0.20549000
       7025.5200      0.19474920
       7026.9900      0.21267470
       7028.4600      0.20700440
       7029.9300      0.19438980
       7031.4000      0.20233280
       7032.8700      0.19216750
       7034.3400      0.17919790
       7035.8100      0.20467840
       7037.2800      0.20941660
       7038.7500      0.19268000
       7040.2200      0.17433180
       7041.6900      0.20600560
       7043.1600      0.24539240
       7044.6300      0.24375160
       7046.1000      0.21801800
       7047.5700      0.21610470
       7049.0400      0.20846470
       7050.5100      0.19612480
       7051.9800      0.21611520
       7053.4500      0.21541300
       7054.9200      0.19860230
       7056.3900      0.20953860
       7057.8600      0.20253940
       7059.3300      0.21203130
       7060.8000      0.23821940
       7062.2700      0.23954120
       7063.7400      0.22600500
       7065.2100      0.22302620
       7066.6800      0.21673820
       7068.1500      0.20898310
       7069.6200      0.22214190
       7071.0900      0.22427850
       7072.5600      0.21469310
       7074.0300      0.21770860
       7075.5000      0.22390790
       7076.9700      0.22261260
       7078.4400      0.20585020
       7079.9100      0.18932750
       7081.3800      0.18193440
       7082.8500      0.18165010
       7084.3200      0.20595740
       7085.7900      0.24438540
       7087.2600      0.25623790
       7088.7300      0.21483090
       7090.2000      0.21434190
       7091.6700      0.23915920
       7093.1400      0.21952480
       7094.6100      0.20619950
       7096.0800      0.20342800
       7097.5500      0.21344760
       7099.0200      0.23521950
       7100.4900      0.23534410
       7101.9600      0.23411600
       7103.4300      0.21943190
       7104.9000      0.19179660
       7106.3700      0.20550420
       7107.8400      0.24420960
       7109.3100      0.23681650
       7110.7800      0.22084560
       7112.2500      0.25578970
       7113.7200      0.24007120
       7115.1900      0.21489570
       7116.6600      0.21823050
       7118.1300      0.22736900
       7119.6000      0.21580110
       7121.0700      0.18952500
       7122.5400      0.21406770
       7124.0100      0.23842370
       7125.4800      0.23669170
       7126.9500      0.20347370
       7128.4200      0.19769730
       7129.8900      0.22607800
       7131.3600      0.23228030
       7132.8300      0.24266300
       7134.3000      0.24376540
       7135.7700      0.23608640
       7137.2400      0.24621320
       7138.7100      0.23174610
       7140.1800      0.21616800
       7141.6500      0.22682200
       7143.1200      0.22399710
       7144.5900      0.19790570
       7146.0600      0.20698710
       7147.5300      0.23426220
       7149.0000      0.24681530
       7150.4700      0.25996350
       7151.9400      0.24522620
       7153.4100      0.22252020
       7154.8800      0.23207500
       7156.3500      0.22573410
       7157.8200      0.23617770
       7159.2900      0.24803570
       7160.7600      0.24212050
       7162.2300      0.24929690
       7163.7000      0.21946680
       7165.1700      0.21093770
       7166.6400      0.23762400
       7168.1100      0.22982520
       7169.5800      0.23221720
       7171.0500      0.23788250
       7172.5200      0.24847670
       7173.9900      0.25591280
       7175.4600      0.26355210
       7176.9300      0.22814710
       7178.4000      0.21119130
       7179.8700      0.21724240
       7181.3400      0.24450190
       7182.8100      0.26038000
       7184.2800      0.23706560
       7185.7500      0.25246920
       7187.2200      0.27109430
       7188.6900      0.26975650
       7190.1600      0.25222160
       7191.6300      0.23358500
       7193.1000      0.26486050
       7194.5700      0.26270490
       7196.0400      0.25243930
       7197.5100      0.25523340
       7198.9800      0.25302120
       7200.4500      0.25362560
       7201.9200      0.25662370
       7203.3900      0.29695510
       7204.8600      0.28778890
       7206.3300      0.27503040
       7207.8000      0.27769490
       7209.2700      0.25978900
       7210.7400      0.27786470
       7212.2100      0.29539220
       7213.6800      0.28035730
       7215.1500      0.27887730
       7216.6200      0.29188200
       7218.0900      0.28880800
       7219.5600      0.26359350
       7221.0300      0.26801600
       7222.4999      0.30321400
       7223.9700      0.28969990
       7225.4400      0.27261730
       7226.9100      0.31609040
       7228.3800      0.30448110
       7229.8500      0.31356780
       7231.3200      0.29512800
       7232.7900      0.27081570
       7234.2600      0.32299510
       7235.7300      0.34051050
       7237.2000      0.34838480
       7238.6700      0.36859700
       7240.1400      0.31385100
       7241.6100      0.29852270
       7243.0800      0.35968130
       7244.5500      0.39323890
       7246.0200      0.42469940
       7247.4900      0.37027360
       7248.9600      0.33755280
       7250.4300      0.32791190
       7251.9000      0.36763660
       7253.3700      0.36376540
       7254.8400      0.35361560
       7256.3100      0.36736430
       7257.7800      0.33130170
       7259.2500      0.30776730
       7260.7200      0.31493510
       7262.1900      0.33114810
       7263.6600      0.33498430
       7265.1300      0.36549820
       7266.6000      0.37174280
       7268.0700      0.35863760
       7269.5400      0.35727840
       7271.0100      0.37649370
       7272.4800      0.39845810
       7273.9500      0.44185250
       7275.4200      0.43156840
       7276.8900      0.42844780
       7278.3600      0.41692920
       7279.8300      0.37571580
       7281.3000      0.39386760
       7282.7700      0.39808460
       7284.2400      0.37781940
       7285.7100      0.40952430
       7287.1800      0.42831230
       7288.6500      0.43549890
       7290.1200      0.43142880
       7291.5900      0.45846540
       7293.0600      0.47899030
       7294.5300      0.47118470
       7296.0000      0.46557880
       7297.4700      0.48403150
       7298.9400      0.43185810
       7300.4100      0.43344990
       7301.8800      0.45454460
       7303.3500      0.45667490
       7304.8200      0.48755370
       7306.2900      0.47575070
       7307.7600      0.45319870
       7309.2300      0.50436820
       7310.7000      0.48487520
       7312.1700      0.47310560
       7313.6400      0.50602810
       7315.1100      0.51113060
       7316.5800      0.48444050
       7318.0500      0.47466690
       7319.5200      0.48632590
       7320.9900      0.49796320
       7322.4600      0.52133450
       7323.9300      0.52770010
       7325.4000      0.52672850
       7326.8700      0.51716060
       7328.3400      0.51271370
       7329.8100      0.46523630
       7331.2800      0.45036150
       7332.7500      0.47083780
       7334.2200      0.48405450
       7335.6900      0.46110940
       7337.1600      0.42011380
       7338.6300      0.45757990
       7340.1000      0.47006340
       7341.5700      0.45882180
       7343.0400      0.49457920
       7344.5100      0.45264560
       7345.9800      0.48682260
       7347.4500      0.48082770
       7348.9200      0.48564070
       7350.3900      0.46662290
       7351.8600      0.42995570
       7353.3300      0.44143760
       7354.8000      0.45457430
       7356.2700      0.46677910
       7357.7400      0.47225540
       7359.2100      0.42800350
       7360.6800      0.42982720
       7362.1500      0.41449760
       7363.6200      0.44593000
       7365.0900      0.42449690
       7366.5600      0.41387000
       7368.0300      0.41004440
       7369.5000      0.43175450
       7370.9700      0.40854510
       7372.4400      0.42718670
       7373.9100      0.40768920
       7375.3800      0.38305900
       7376.8500      0.38948870
       7378.3200      0.42709130
       7379.7900      0.43618910
       7381.2600      0.40479320
       7382.7300      0.40945570
       7384.2000      0.38564290
       7385.6700      0.40581340
       7387.1400      0.38309950
       7388.6100      0.35297330
       7390.0800      0.36510360
       7391.5500      0.36866520
       7393.0200      0.37752320
       7394.4900      0.35450030
       7395.9600      0.35934420
       7397.4300      0.35792390
       7398.9000      0.31607680
       7400.3700      0.34734800
       7401.8400      0.29562390
       7403.3100      0.29671330
       7404.7800      0.33309310
       7406.2500      0.33668910
       7407.7200      0.34573020
       7409.1900      0.34591080
       7410.6600      0.32806440
       7412.1300      0.32359850
       7413.6000      0.32072710
       7415.0700      0.30959410
       7416.5400      0.32463030
