	Wave (A)	FluxDens(1d-15)   Err
       3801.0000       23.641355      0.18097823
       3801.4900       23.641355      0.18097823
       3801.9800       23.638180      0.18084714
       3802.4700       23.682470      0.18089856
       3802.9600       23.629832      0.18060644
       3803.4500       23.609181      0.18037379
       3803.9400       23.611867      0.18020498
       3804.4300       23.651650      0.18023735
       3804.9200       23.748517      0.18046486
       3805.4100       23.718814      0.18016620
       3805.9000       23.545559      0.17940108
       3806.3900       23.607529      0.17958404
       3806.8800       23.568448      0.17929057
       3807.3700       23.718832      0.17970345
       3807.8600       23.561383      0.17898025
       3808.3500       23.490967      0.17863910
       3808.8400       23.579880      0.17883613
       3809.3300       23.638868      0.17893431
       3809.8200       23.555243      0.17853361
       3810.3100       23.489444      0.17803517
       3810.8000       23.457716      0.17775927
       3811.2900       23.408704      0.17751064
       3811.7800       23.549395      0.17794945
       3812.2700       23.729559      0.17851266
       3812.7600       23.564177      0.17781770
       3813.2500       23.586478      0.17767906
       3813.7400       23.640967      0.17779087
       3814.2300       23.535428      0.17729457
       3814.7200       23.643326      0.17750212
       3815.2100       23.643561      0.17742299
       3815.7000       23.631085      0.17727805
       3816.1900       23.543112      0.17683224
       3816.6800       23.668762      0.17713330
       3817.1700       24.075293      0.17843217
       3817.6600       24.270790      0.17905692
       3818.1500       24.373033      0.17925935
       3818.6400       24.956061      0.18121131
       3819.1300       25.915685      0.18448829
       3819.6200       26.497685      0.18642816
       3820.1100       26.428928      0.18601509
       3820.6000       25.759842      0.18349726
       3821.0900       24.969906      0.18066140
       3821.5800       24.332620      0.17830332
       3822.0700       24.141051      0.17747987
       3822.5600       23.916627      0.17660380
       3823.0500       23.706215      0.17567172
       3823.5400       23.654282      0.17528587
       3824.0300       23.387276      0.17417869
       3824.5200       23.311789      0.17377752
       3825.0100       23.652842      0.17481374
       3825.5000       23.515900      0.17429934
       3825.9900       23.230847      0.17326741
       3826.4800       23.293854      0.17341857
       3826.9700       23.245329      0.17313655
       3827.4600       23.437879      0.17366359
       3827.9500       23.261174      0.17293651
       3828.4400       23.071563      0.17219306
       3828.9300       23.213230      0.17260135
       3829.4200       23.225245      0.17267184
       3829.9100       23.326720      0.17296221
       3830.4000       23.193917      0.17222706
       3830.8900       23.033420      0.17155997
       3831.3800       23.211627      0.17207174
       3831.8700       23.026272      0.17125909
       3832.3600       22.969816      0.17099706
       3832.8500       23.141057      0.17142078
       3833.3400       23.073258      0.17110087
       3833.8300       23.158407      0.17134523
       3834.3200       23.207110      0.17137301
       3834.8100       23.029111      0.17056730
       3835.3000       22.962355      0.17014836
       3835.7900       23.075096      0.17044431
       3836.2800       23.127787      0.17062627
       3836.7700       23.250346      0.17109665
       3837.2600       23.384144      0.17137365
       3837.7500       23.310035      0.17088202
       3838.2400       23.350625      0.17094134
       3838.7300       23.445057      0.17118239
       3839.2200       23.375364      0.17082238
       3839.7100       23.532126      0.17131308
       3840.2000       23.830506      0.17237492
       3840.6900       24.066815      0.17313817
       3841.1800       24.266489      0.17371911
       3841.6700       24.269219      0.17361604
       3842.1600       24.227558      0.17340848
       3842.6500       23.999291      0.17243500
       3843.1400       23.598062      0.17078758
       3843.6300       23.352474      0.16988878
       3844.1200       23.441265      0.17021000
       3844.6100       23.405396      0.17004621
       3845.1000       23.217852      0.16927337
       3845.5900       23.418691      0.16986198
       3846.0800       23.427657      0.16979273
       3846.5700       23.319120      0.16929673
       3847.0600       23.301664      0.16914054
       3847.5500       23.223493      0.16871022
       3848.0400       23.167562      0.16835169
       3848.5300       23.040003      0.16778963
       3849.0200       23.107873      0.16800014
       3849.5100       23.303661      0.16865635
       3850.0000       23.293893      0.16853072
       3850.4900       23.301604      0.16841219
       3850.9800       23.222503      0.16795125
       3851.4700       23.186728      0.16778321
       3851.9600       23.272355      0.16804444
       3852.4500       23.361046      0.16819900
       3852.9400       23.442916      0.16832901
       3853.4300       23.388447      0.16803394
       3853.9200       23.450794      0.16825489
       3854.4100       23.660252      0.16897958
       3854.9000       23.688009      0.16892258
       3855.3900       24.050205      0.17005271
       3855.8800       24.942830      0.17307738
       3856.3700       25.917729      0.17630526
       3856.8600       26.829201      0.17919526
       3857.3500       27.372734      0.18081272
       3857.8400       27.144239      0.17997401
       3858.3300       26.274608      0.17700291
       3858.8200       25.366013      0.17378130
       3859.3100       24.543428      0.17087129
       3859.8000       24.077970      0.16927931
       3860.2900       23.778553      0.16820778
       3860.7800       23.541176      0.16726953
       3861.2700       23.627964      0.16742094
       3861.7600       23.643531      0.16736132
       3862.2500       23.345978      0.16626959
       3862.7400       23.093373      0.16526687
       3863.2300       23.100914      0.16517039
       3863.7200       23.281792      0.16572415
       3864.2100       23.231291      0.16546785
       3864.7000       23.101024      0.16483780
       3865.1900       23.094303      0.16470756
       3865.6800       23.072430      0.16462684
       3866.1700       23.248557      0.16519000
       3866.6600       23.223265      0.16499284
       3867.1500       23.141581      0.16463550
       3867.6400       23.132137      0.16450177
       3868.1300       23.110998      0.16433332
       3868.6200       23.147986      0.16429726
       3869.1100       23.215244      0.16438701
       3869.6000       23.104386      0.16390448
       3870.0900       22.972802      0.16337790
       3870.5800       22.910505      0.16295939
       3871.0700       22.937670      0.16297343
       3871.5600       23.048917      0.16330866
       3872.0500       23.184814      0.16369430
       3872.5400       23.051559      0.16322352
       3873.0300       22.795634      0.16227433
       3873.5200       22.968431      0.16281738
       3874.0100       23.089263      0.16315771
       3874.5000       22.984431      0.16273258
       3874.9900       22.928103      0.16236646
       3875.4800       22.861924      0.16206108
       3875.9700       22.895548      0.16204115
       3876.4600       22.888472      0.16192429
       3876.9500       23.289948      0.16318815
       3877.4400       23.186568      0.16276115
       3877.9300       23.332440      0.16324896
       3878.4200       23.364360      0.16328240
       3878.9100       23.414751      0.16333651
       3879.4000       23.094005      0.16208982
       3879.8900       23.048565      0.16176370
       3880.3800       22.921123      0.16127520
       3880.8700       22.954501      0.16126695
       3881.3600       22.431661      0.15938011
       3881.8500       22.935455      0.16101839
       3882.3400       22.739010      0.16025941
       3882.8300       22.606542      0.15977757
       3883.3200       22.782601      0.16025408
       3883.8100       22.839577      0.16038881
       3884.3000       23.297242      0.16184014
       3884.7900       23.082264      0.16102420
       3885.2800       22.810800      0.15997348
       3885.7700       23.114063      0.16087548
       3886.2600       23.107654      0.16084167
       3886.7500       22.972373      0.16022677
       3887.2400       22.851372      0.15968513
       3887.7300       22.569743      0.15869324
       3888.2200       22.701431      0.15902810
       3888.7100       22.890674      0.15950637
       3889.2000       22.999237      0.15987868
       3889.6900       22.902473      0.15946003
       3890.1800       22.802781      0.15899756
       3890.6700       22.938598      0.15932715
       3891.1600       22.828951      0.15886457
       3891.6500       23.046825      0.15956484
       3892.1400       22.832457      0.15875143
       3892.6300       22.933814      0.15884699
       3893.1200       22.928594      0.15873171
       3893.6100       22.888684      0.15863813
       3894.1000       22.962083      0.15880062
       3894.5900       23.016349      0.15892644
       3895.0800       23.093976      0.15907307
       3895.5700       23.011960      0.15868704
       3896.0600       22.971132      0.15847105
       3896.5500       23.248208      0.15920666
       3897.0400       22.992433      0.15825909
       3897.5300       22.949083      0.15800323
       3898.0200       23.062075      0.15828167
       3898.5100       23.116329      0.15839587
       3899.0000       23.035024      0.15803159
       3899.4900       23.071954      0.15808844
       3899.9800       23.155928      0.15828700
       3900.4700       23.064845      0.15785610
       3900.9600       23.103449      0.15788773
       3901.4500       23.135960      0.15790875
       3901.9400       23.146665      0.15791274
       3902.4300       23.428924      0.15876987
       3902.9200       23.589013      0.15914913
       3903.4100       23.511907      0.15880701
       3903.9000       23.479850      0.15872877
       3904.3900       23.444734      0.15857238
       3904.8800       23.554767      0.15879353
       3905.3700       23.628524      0.15895741
       3905.8600       23.794102      0.15950322
       3906.3500       24.005182      0.16019205
       3906.8400       24.073409      0.16037601
       3907.3300       24.208116      0.16071280
       3907.8200       24.470324      0.16144482
       3908.3100       24.983703      0.16299778
       3908.8000       25.623317      0.16494110
       3909.2900       26.787514      0.16844746
       3909.7800       28.469822      0.17347434
       3910.2700       30.035863      0.17812172
       3910.7600       31.420348      0.18206481
       3911.2500       32.095363      0.18386751
       3911.7400       31.490719      0.18206229
       3912.2300       29.953906      0.17750081
       3912.7200       28.107951      0.17187792
       3913.2100       26.419166      0.16662031
       3913.7000       25.290649      0.16301826
       3914.1900       24.782067      0.16125517
       3914.6800       24.483486      0.16015393
       3915.1700       24.266728      0.15935766
       3915.6600       24.282452      0.15929902
       3916.1500       24.020679      0.15837483
       3916.6400       23.927406      0.15795096
       3917.1300       24.171939      0.15868239
       3917.6200       24.060055      0.15833979
       3918.1100       23.861890      0.15760198
       3918.6000       23.804693      0.15724326
       3919.0900       23.827028      0.15720705
       3919.5800       23.706341      0.15677130
       3920.0700       23.687847      0.15666776
       3920.5600       23.689399      0.15655392
       3921.0500       23.496419      0.15586091
       3921.5400       23.622323      0.15617761
       3922.0300       23.672968      0.15621987
       3922.5200       23.345490      0.15509039
       3923.0100       23.337461      0.15501151
       3923.5000       23.474230      0.15538858
       3923.9900       23.622992      0.15579486
       3924.4800       23.474765      0.15525130
       3924.9700       23.294508      0.15456900
       3925.4600       23.267899      0.15440082
       3925.9500       23.176913      0.15399625
       3926.4400       23.395419      0.15460599
       3926.9300       23.675966      0.15548443
       3927.4200       23.517857      0.15489169
       3927.9100       23.372918      0.15432181
       3928.4000       23.205333      0.15370486
       3928.8900       23.309876      0.15400552
       3929.3800       23.359847      0.15412740
       3929.8700       23.357426      0.15410527
       3930.3600       23.245921      0.15363558
       3930.8500       23.076092      0.15297497
       3931.3400       23.008876      0.15271493
       3931.8300       23.186278      0.15322435
       3932.3200       22.990846      0.15245344
       3932.8100       22.049464      0.14922369
       3933.3000       21.546046      0.14748558
       3933.7900       22.097200      0.14925716
       3934.2800       22.880178      0.15170533
       3934.7700       23.150683      0.15249908
       3935.2600       23.039714      0.15205944
       3935.7500       22.896338      0.15158238
       3936.2400       23.061779      0.15206986
       3936.7300       23.004716      0.15178304
       3937.2200       23.056129      0.15189300
       3937.7100       23.040557      0.15178123
       3938.2000       22.987125      0.15166525
       3938.6900       23.073006      0.15184933
       3939.1800       23.156446      0.15200974
       3939.6700       22.982878      0.15137003
       3940.1600       22.894240      0.15096205
       3940.6500       23.190367      0.15183721
       3941.1400       22.978129      0.15109660
       3941.6300       22.841432      0.15055224
       3942.1200       22.775475      0.15028384
       3942.6100       22.973717      0.15090587
       3943.1000       23.055617      0.15114342
       3943.5900       22.853835      0.15035598
       3944.0800       22.675601      0.14963218
       3944.5700       22.515616      0.14905478
       3945.0600       22.546192      0.14915362
       3945.5500       22.781850      0.14981366
       3946.0400       22.822701      0.14983002
       3946.5300       22.756846      0.14955477
       3947.0200       22.783436      0.14956465
       3947.5100       22.736186      0.14937263
       3948.0000       22.753355      0.14937946
       3948.4900       22.756124      0.14928579
       3948.9800       22.650114      0.14880932
       3949.4700       22.458311      0.14811899
       3949.9600       22.321881      0.14760500
       3950.4500       22.402797      0.14783007
       3950.9400       22.484357      0.14804714
       3951.4300       22.465314      0.14790913
       3951.9200       22.511657      0.14801702
       3952.4100       22.511058      0.14790476
       3952.9000       22.428132      0.14754268
       3953.3900       22.306618      0.14711010
       3953.8800       22.442308      0.14748306
       3954.3700       22.617392      0.14794790
       3954.8600       22.367072      0.14709175
       3955.3500       21.747695      0.14500596
       3955.8400       21.095688      0.14277273
       3956.3300       21.043084      0.14253423
       3956.8200       21.554740      0.14413716
       3957.3100       22.233201      0.14625878
       3957.8000       22.606541      0.14742218
       3958.2900       22.524567      0.14712291
       3958.7800       22.440324      0.14677582
       3959.2700       22.411670      0.14665486
       3959.7600       22.516861      0.14698259
       3960.2500       22.445923      0.14665167
       3960.7400       22.286487      0.14606315
       3961.2300       22.359695      0.14626204
       3961.7200       22.411076      0.14632593
       3962.2100       22.432319      0.14627865
       3962.7000       22.474758      0.14634906
       3963.1900       22.494031      0.14638349
       3963.6800       22.423846      0.14608878
       3964.1700       22.312118      0.14560991
       3964.6600       22.168156      0.14505939
       3965.1500       22.136625      0.14489781
       3965.6400       22.222879      0.14511131
       3966.1300       22.224040      0.14506750
       3966.6200       22.180032      0.14483482
       3967.1100       22.007954      0.14413973
       3967.6000       21.698596      0.14305776
       3968.0900       21.552791      0.14255093
       3968.5800       21.747247      0.14313553
       3969.0700       22.137197      0.14434393
       3969.5600       22.302347      0.14483995
       3970.0500       22.078683      0.14407968
       3970.5400       22.003981      0.14378358
       3971.0300       22.180328      0.14432636
       3971.5200       22.143781      0.14416217
       3972.0100       21.998213      0.14359435
       3972.5000       21.922230      0.14328478
       3972.9900       21.902093      0.14320095
       3973.4800       21.827777      0.14293796
       3973.9700       21.784986      0.14273395
       3974.4600       21.909958      0.14304119
       3974.9500       22.114137      0.14360313
       3975.4400       22.150336      0.14366023
       3975.9300       22.111208      0.14347658
       3976.4200       22.191818      0.14365975
       3976.9100       22.045334      0.14311932
       3977.4000       21.894236      0.14257333
       3977.8900       21.965061      0.14275300
       3978.3800       21.932066      0.14255402
       3978.8700       21.905356      0.14235637
       3979.3600       22.066322      0.14279993
       3979.8500       22.083386      0.14286908
       3980.3400       21.919412      0.14228210
       3980.8300       21.991201      0.14237823
       3981.3200       22.016740      0.14239884
       3981.8100       21.962023      0.14221844
       3982.3000       22.111791      0.14265263
       3982.7900       22.144127      0.14267416
       3983.2800       22.090594      0.14239023
       3983.7700       22.149106      0.14248911
       3984.2600       22.267688      0.14276684
       3984.7500       22.263445      0.14262990
       3985.2400       22.287942      0.14265798
       3985.7300       22.610996      0.14362889
       3986.2200       22.834053      0.14428822
       3986.7100       22.991803      0.14472998
       3987.2000       23.197661      0.14535885
       3987.6900       23.411395      0.14595259
       3988.1800       23.517182      0.14622374
       3988.6700       23.300016      0.14550882
       3989.1600       23.233491      0.14520309
       3989.6500       23.281616      0.14523831
       3990.1400       23.122644      0.14464691
       3990.6300       23.206099      0.14486778
       3991.1200       23.887779      0.14690173
       3991.6100       25.727377      0.15232358
       3992.1000       27.904852      0.15853294
       3992.5900       29.563279      0.16307772
       3993.0800       30.184111      0.16474048
       3993.5700       29.004488      0.16138375
       3994.0600       27.081621      0.15593504
       3994.5500       25.334874      0.15089177
       3995.0400       24.004216      0.14683967
       3995.5300       23.211857      0.14436198
       3996.0200       22.800814      0.14307197
       3996.5100       22.705561      0.14268679
       3997.0000       22.710954      0.14260020
       3997.4900       22.572558      0.14212811
       3997.9800       22.522608      0.14196007
       3998.4700       22.504514      0.14186614
       3998.9600       22.438182      0.14162972
       3999.4500       22.567018      0.14189007
       3999.9400       22.457421      0.14147035
       4000.4300       22.054347      0.14016055
       4000.9200       21.947114      0.13983877
       4001.4100       22.179871      0.14052276
       4001.9000       22.264016      0.14068571
       4002.3900       22.278645      0.14070961
       4002.8800       22.139564      0.14020631
       4003.3700       22.167668      0.14017979
       4003.8600       22.142303      0.14005326
       4004.3500       21.985626      0.13954419
       4004.8400       21.989436      0.13950634
       4005.3300       21.991473      0.13945456
       4005.8200       21.903582      0.13910656
       4006.3100       21.766181      0.13864696
       4006.8000       21.844803      0.13890004
       4007.2900       21.874326      0.13896925
       4007.7800       21.681080      0.13832532
       4008.2700       21.692010      0.13830708
       4008.7600       21.831320      0.13872027
       4009.2500       21.740962      0.13840884
       4009.7400       21.696269      0.13815415
       4010.2300       21.665750      0.13795202
       4010.7200       21.617761      0.13777825
       4011.2100       21.607929      0.13774191
       4011.7000       21.665406      0.13789455
       4012.1900       21.670560      0.13786315
       4012.6800       21.637228      0.13764652
       4013.1700       21.662767      0.13763492
       4013.6600       21.655009      0.13756996
       4014.1500       21.647072      0.13751984
       4014.6400       21.603281      0.13729418
       4015.1300       21.714212      0.13755931
       4015.6200       21.779284      0.13772553
       4016.1100       21.668165      0.13732603
       4016.6000       21.650141      0.13722392
       4017.0900       21.643339      0.13714438
       4017.5800       21.595559      0.13695907
       4018.0700       21.612410      0.13699141
       4018.5600       21.532527      0.13673267
       4019.0500       21.420132      0.13640945
       4019.5400       21.491158      0.13664437
       4020.0300       21.505775      0.13662871
       4020.5200       21.422042      0.13620325
       4021.0100       21.488336      0.13627054
       4021.5000       21.551394      0.13640083
       4021.9900       21.521946      0.13623338
       4022.4800       21.600607      0.13640289
       4022.9700       21.538985      0.13621554
       4023.4600       21.452729      0.13598622
       4023.9500       21.521775      0.13615500
       4024.4400       21.426999      0.13574786
       4024.9300       21.359362      0.13541427
       4025.4200       21.525787      0.13586341
       4025.9100       21.749892      0.13654100
       4026.4000       21.688563      0.13631486
       4026.8900       21.533934      0.13573635
       4027.3800       21.646651      0.13591042
       4027.8700       21.621261      0.13573657
       4028.3600       21.501960      0.13537631
       4028.8500       21.438649      0.13515741
       4029.3400       21.390871      0.13491745
       4029.8300       21.321737      0.13455197
       4030.3200       21.463890      0.13495769
       4030.8100       21.558024      0.13527148
       4031.3000       21.466988      0.13494905
       4031.7900       21.575602      0.13524103
       4032.2800       21.570331      0.13512505
       4032.7700       21.320891      0.13427371
       4033.2600       21.353304      0.13428179
       4033.7500       21.376410      0.13427878
       4034.2400       21.295072      0.13401874
       4034.7300       21.290613      0.13396573
       4035.2200       21.325925      0.13408325
       4035.7100       21.333040      0.13406927
       4036.2000       21.186614      0.13355065
       4036.6900       21.163717      0.13343101
       4037.1800       21.107334      0.13320352
       4037.6700       21.228440      0.13351647
       4038.1600       21.441499      0.13414324
       4038.6500       21.388428      0.13391731
       4039.1400       21.360051      0.13373809
       4039.6300       21.079303      0.13282934
       4040.1200       21.100063      0.13290169
       4040.6100       21.209159      0.13319571
       4041.1000       21.245510      0.13329844
       4041.5900       21.278325      0.13336564
       4042.0800       21.396984      0.13366085
       4042.5700       21.372819      0.13355293
       4043.0600       21.365275      0.13351649
       4043.5500       21.575518      0.13414699
       4044.0400       21.536616      0.13395754
       4044.5300       21.464592      0.13377783
       4045.0200       21.661029      0.13479532
       4045.5100       21.525471      0.13529277
       4046.0000       21.562606      0.13598818
       4046.4900       21.665263      0.13587219
       4046.9800       21.781675      0.13534130
       4047.4700       21.821373      0.13487330
       4047.9600       22.364098      0.13623109
       4048.4500       22.748980      0.13725229
       4048.9400       23.054744      0.13807440
       4049.4300       23.319417      0.13877686
       4049.9200       22.964460      0.13773813
       4050.4100       22.601953      0.13660870
       4050.9000       21.975459      0.13461736
       4051.3900       21.614578      0.13341918
       4051.8800       21.628931      0.13340787
       4052.3700       21.437280      0.13273758
       4052.8600       21.192078      0.13202529
       4053.3500       21.365592      0.13261015
       4053.8400       21.521507      0.13305500
       4054.3300       21.451465      0.13274739
       4054.8200       21.349219      0.13236136
       4055.3100       21.494841      0.13271739
       4055.8000       21.420745      0.13243530
       4056.2900       21.484673      0.13262044
       4056.7800       21.509085      0.13257314
       4057.2700       21.353616      0.13211149
       4057.7600       21.102181      0.13130183
       4058.2500       21.237994      0.13168744
       4058.7400       21.388775      0.13214344
       4059.2300       21.404078      0.13211481
       4059.7200       21.305496      0.13180619
       4060.2100       21.346492      0.13189132
       4060.7000       21.402861      0.13200509
       4061.1900       21.360232      0.13184319
       4061.6800       21.308266      0.13162011
       4062.1700       21.394180      0.13191300
       4062.6600       21.261808      0.13153435
       4063.1500       21.138858      0.13112397
       4063.6400       21.107724      0.13097577
       4064.1300       21.224684      0.13136106
       4064.6200       21.119291      0.13094306
       4065.1100       21.048837      0.13062074
       4065.6000       21.264098      0.13116781
       4066.0900       21.411491      0.13154888
       4066.5800       21.245982      0.13100194
       4067.0700       20.987800      0.13021137
       4067.5600       21.003357      0.13024387
       4068.0500       21.175637      0.13072293
       4068.5400       21.095404      0.13041624
       4069.0300       20.844477      0.12962710
       4069.5200       20.958716      0.12990400
       4070.0100       21.219596      0.13066434
       4070.5000       21.097644      0.13028333
       4070.9900       20.988522      0.12989923
       4071.4800       21.043887      0.13002019
       4071.9700       21.171146      0.13024916
       4072.4600       21.170789      0.13014063
       4072.9500       21.036297      0.12971502
       4073.4400       21.021972      0.12962392
       4073.9300       20.952712      0.12940238
       4074.4200       20.768870      0.12887405
       4074.9100       20.779180      0.12893956
       4075.4000       20.993768      0.12958544
       4075.8900       21.118396      0.12994249
       4076.3800       21.047656      0.12970551
       4076.8700       21.044387      0.12969187
       4077.3600       21.023219      0.12966911
       4077.8500       20.921392      0.12929093
       4078.3400       20.961097      0.12923375
       4078.8300       21.025104      0.12930589
       4079.3200       21.035686      0.12932642
       4079.8100       21.012412      0.12928937
       4080.3000       20.834819      0.12871137
       4080.7900       20.831316      0.12865508
       4081.2800       21.048506      0.12929153
       4081.7700       21.131051      0.12949583
       4082.2600       21.061952      0.12924658
       4082.7500       20.911108      0.12875106
       4083.2400       20.903910      0.12867332
       4083.7300       20.956370      0.12876985
       4084.2200       21.019231      0.12894927
       4084.7100       20.993191      0.12887404
       4085.2000       20.857257      0.12844211
       4085.6900       20.914543      0.12859264
       4086.1800       21.015583      0.12889569
       4086.6700       20.870148      0.12838333
       4087.1600       20.684766      0.12771916
       4087.6500       20.756354      0.12790911
       4088.1400       20.987362      0.12859124
       4088.6300       21.040728      0.12871588
       4089.1200       20.787937      0.12790691
       4089.6100       20.757588      0.12775980
       4090.1000       21.031425      0.12852062
       4090.5900       21.039102      0.12854121
       4091.0800       20.864452      0.12800232
       4091.5700       20.903412      0.12808361
       4092.0600       20.810828      0.12777412
       4092.5500       20.683973      0.12737647
       4093.0400       20.751498      0.12752326
       4093.5300       20.794480      0.12759304
       4094.0200       20.825590      0.12774723
       4094.5100       20.828984      0.12769053
       4095.0000       20.815204      0.12759413
       4095.4900       20.906064      0.12785028
       4095.9800       20.969272      0.12801503
       4096.4700       20.951318      0.12794258
       4096.9600       20.803729      0.12745725
       4097.4500       20.929061      0.12774935
       4097.9400       20.878468      0.12755755
       4098.4300       20.812107      0.12738675
       4098.9200       20.894325      0.12759770
       4099.4100       20.881138      0.12756572
       4099.9000       20.981523      0.12778412
       4100.3900       20.885956      0.12743635
       4100.8800       20.801138      0.12717792
       4101.3700       20.839621      0.12722644
       4101.8600       20.850351      0.12724408
       4102.3500       20.750298      0.12695039
       4102.8400       20.737849      0.12688016
       4103.3300       20.887582      0.12729236
       4103.8200       20.879754      0.12719563
       4104.3100       21.055819      0.12770801
       4104.8000       20.860567      0.12707091
       4105.2900       20.984138      0.12737555
       4105.7800       20.893222      0.12712228
       4106.2700       20.823952      0.12698448
       4106.7600       20.693431      0.12652895
       4107.2500       20.779567      0.12679674
       4107.7400       20.815721      0.12686062
       4108.2300       20.748611      0.12661124
       4108.7200       20.828161      0.12683871
       4109.2100       20.866439      0.12689232
       4109.7000       20.964093      0.12709948
       4110.1900       20.936929      0.12685526
       4110.6800       20.869682      0.12660401
       4111.1700       20.930774      0.12677253
       4111.6600       20.981497      0.12686009
       4112.1500       21.014307      0.12693559
       4112.6400       21.206450      0.12748557
       4113.1300       21.205132      0.12744144
       4113.6200       20.966839      0.12671371
       4114.1100       21.052809      0.12695111
       4114.6000       21.061157      0.12698576
       4115.0900       21.144708      0.12718119
       4115.5800       21.147696      0.12712385
       4116.0700       21.446274      0.12792766
       4116.5600       21.437154      0.12782531
       4117.0500       21.347285      0.12747797
       4117.5400       21.360042      0.12744378
       4118.0300       21.459492      0.12775435
       4118.5200       21.575987      0.12802030
       4119.0100       21.786427      0.12858551
       4119.5000       21.774296      0.12852128
       4119.9900       21.891930      0.12881548
       4120.4800       22.053329      0.12929295
       4120.9700       22.124857      0.12946963
       4121.4600       22.233905      0.12973591
       4121.9500       22.779062      0.13128132
       4122.4400       23.288868      0.13268495
       4122.9300       24.080871      0.13487685
       4123.4200       25.590283      0.13892610
       4123.9100       28.087993      0.14540147
       4124.4000       30.628202      0.15175801
       4124.8900       32.208340      0.15555301
       4125.3800       32.753853      0.15679246
       4125.8700       32.003376      0.15497731
       4126.3600       29.817873      0.14955205
       4126.8500       26.880028      0.14199149
       4127.3400       24.607587      0.13593600
       4127.8300       23.348700      0.13239658
       4128.3200       22.776942      0.13074454
       4128.8100       22.469838      0.12984540
       4129.3000       22.214758      0.12902687
       4129.7900       21.994478      0.12832701
       4130.2800       21.757248      0.12763018
       4130.7700       21.751360      0.12758627
       4131.2600       21.642737      0.12720602
       4131.7500       21.450081      0.12658537
       4132.2400       21.398038      0.12642869
       4132.7300       21.394415      0.12643378
       4133.2200       21.345405      0.12625250
       4133.7100       21.198231      0.12571923
       4134.2000       21.090776      0.12530823
       4134.6900       21.102788      0.12530097
       4135.1800       21.160138      0.12546606
       4135.6700       21.091391      0.12522574
       4136.1600       20.942546      0.12472329
       4136.6500       20.902222      0.12454936
       4137.1400       20.903115      0.12448807
       4137.6300       20.872851      0.12437124
       4138.1200       20.827246      0.12419173
       4138.6100       20.696785      0.12375462
       4139.1000       20.687070      0.12372746
       4139.5900       20.768383      0.12395181
       4140.0800       20.667755      0.12360511
       4140.5700       20.655964      0.12347755
       4141.0600       20.568930      0.12311958
       4141.5500       20.513687      0.12291441
       4142.0400       20.621157      0.12316827
       4142.5300       20.589734      0.12302868
       4143.0200       20.597367      0.12302837
       4143.5100       20.683875      0.12322125
       4144.0000       20.753406      0.12341550
       4144.4900       20.797132      0.12352866
       4144.9800       20.728405      0.12329988
       4145.4700       20.704704      0.12319647
       4145.9600       20.491645      0.12249527
       4146.4500       20.281137      0.12181800
       4146.9400       20.228527      0.12162680
       4147.4300       20.285546      0.12172650
       4147.9200       20.222282      0.12149689
       4148.4100       20.175808      0.12130081
       4148.9000       20.288245      0.12160550
       4149.3900       20.084543      0.12099065
       4149.8800       20.106084      0.12097984
       4150.3700       20.324446      0.12157037
       4150.8600       20.174064      0.12108509
       4151.3500       19.993354      0.12055480
       4151.8400       20.090319      0.12084716
       4152.3300       20.105409      0.12083333
       4152.8200       20.022471      0.12049210
       4153.3100       20.114562      0.12072125
       4153.8000       20.125713      0.12074176
       4154.2900       19.997191      0.12028353
       4154.7800       20.022815      0.12036722
       4155.2700       20.078463      0.12044724
       4155.7600       19.778746      0.11938254
       4156.2500       19.867856      0.11957031
       4156.7400       20.030432      0.12001993
       4157.2300       19.873584      0.11953757
       4157.7200       19.701262      0.11896196
       4158.2100       19.732826      0.11898650
       4158.7000       19.802070      0.11912803
       4159.1900       19.624158      0.11853185
       4159.6800       19.604790      0.11843174
       4160.1700       19.651355      0.11857982
       4160.6600       19.790125      0.11895138
       4161.1500       19.770900      0.11883519
       4161.6400       19.517643      0.11799928
       4162.1300       19.416731      0.11756686
       4162.6200       19.651556      0.11819317
       4163.1100       19.624976      0.11808694
       4163.6000       19.542205      0.11785067
       4164.0900       19.636363      0.11811653
       4164.5800       19.623343      0.11811305
       4165.0700       19.730262      0.11839126
       4165.5600       19.675958      0.11806220
       4166.0500       19.507034      0.11746240
       4166.5400       19.541444      0.11746946
       4167.0300       19.689134      0.11786035
       4167.5200       19.601132      0.11758203
       4168.0100       19.707576      0.11789341
       4168.5000       19.710245      0.11784690
       4168.9900       19.523881      0.11720789
       4169.4800       19.350017      0.11663143
       4169.9700       19.290377      0.11638403
       4170.4600       19.332171      0.11642624
       4170.9500       19.283508      0.11623346
       4171.4400       19.417497      0.11656736
       4171.9300       19.366441      0.11643016
       4172.4200       19.362558      0.11639430
       4172.9100       19.274650      0.11601877
       4173.4000       19.165454      0.11559375
       4173.8900       19.279153      0.11588873
       4174.3800       19.250189      0.11574866
       4174.8700       19.105043      0.11530330
       4175.3600       19.089236      0.11519092
       4175.8500       19.057573      0.11498519
       4176.3400       19.054049      0.11494456
       4176.8300       19.068790      0.11493505
       4177.3200       18.913420      0.11441402
       4177.8100       18.894708      0.11432222
       4178.3000       18.975897      0.11453234
       4178.7900       18.973835      0.11448185
       4179.2800       18.904488      0.11418482
       4179.7700       18.860667      0.11399642
       4180.2600       18.886184      0.11404174
       4180.7500       18.920828      0.11408488
       4181.2400       18.929699      0.11402722
       4181.7300       18.972350      0.11411540
       4182.2200       18.863098      0.11373026
       4182.7100       18.674220      0.11310245
       4183.2000       18.828240      0.11353024
       4183.6900       18.874624      0.11360607
       4184.1800       18.752835      0.11321848
       4184.6700       18.760434      0.11321567
       4185.1600       18.876075      0.11349526
       4185.6500       18.751544      0.11305903
       4186.1400       18.671163      0.11273832
       4186.6300       18.826202      0.11312322
       4187.1200       18.821127      0.11305666
       4187.6100       18.769976      0.11288152
       4188.1000       18.845319      0.11305411
       4188.5900       18.815725      0.11289474
       4189.0800       18.690793      0.11250787
       4189.5700       18.648546      0.11234546
       4190.0600       18.692450      0.11237131
       4190.5500       18.721254      0.11238908
       4191.0400       18.798188      0.11261371
       4191.5300       18.802206      0.11260470
       4192.0200       18.673193      0.11214741
       4192.5100       18.693652      0.11214715
       4193.0000       18.801893      0.11245037
       4193.4900       18.784464      0.11237268
       4193.9800       18.660460      0.11195347
       4194.4700       18.577948      0.11162567
       4194.9600       18.623895      0.11170993
       4195.4500       18.707129      0.11192219
       4195.9400       18.665732      0.11170666
       4196.4300       18.597075      0.11143995
       4196.9200       18.618728      0.11144296
       4197.4100       18.610586      0.11135589
       4197.9000       18.567396      0.11120903
       4198.3900       18.596434      0.11124000
       4198.8800       18.513352      0.11093624
       4199.3700       18.568260      0.11106983
       4199.8600       18.685467      0.11141785
       4200.3500       18.519903      0.11088155
       4200.8400       18.373266      0.11029338
       4201.3300       18.520563      0.11057954
       4201.8200       18.624306      0.11085679
       4202.3100       18.570146      0.11066421
       4202.8000       18.511758      0.11044229
       4203.2900       18.359125      0.10991877
       4203.7800       18.291249      0.10967692
       4204.2700       18.320207      0.10973649
       4204.7600       18.435391      0.10999456
       4205.2500       18.452660      0.10999480
       4205.7400       18.278303      0.10946848
       4206.2300       18.307859      0.10948300
       4206.7200       18.344390      0.10956052
       4207.2100       18.334950      0.10944183
       4207.7000       18.198343      0.10893278
       4208.1900       18.207115      0.10890137
       4208.6800       18.460245      0.10953275
       4209.1700       18.429494      0.10938294
       4209.6600       18.326980      0.10908469
       4210.1500       18.275897      0.10888443
       4210.6400       18.180958      0.10855162
       4211.1300       18.074947      0.10817952
       4211.6200       18.263238      0.10865766
       4212.1100       18.391769      0.10898723
       4212.6000       18.281686      0.10860623
       4213.0900       18.119898      0.10806336
       4213.5800       18.037888      0.10778137
       4214.0700       18.115355      0.10792061
       4214.5600       18.228946      0.10821371
       4215.0500       18.154317      0.10798179
       4215.5400       18.102163      0.10775521
       4216.0300       18.101903      0.10768989
       4216.5200       17.868286      0.10775397
       4217.0100       17.793351      0.10771258
       4217.5000       17.922112      0.10697305
       4217.9900       18.065298      0.10747100
       4218.4800       18.044966      0.10737978
       4218.9700       17.944900      0.10699659
       4219.4600       17.931937      0.10691458
       4219.9500       18.001136      0.10707846
       4220.4400       18.188934      0.10756743
       4220.9300       17.995680      0.10696941
       4221.4200       17.827787      0.10644971
       4221.9100       17.859678      0.10648935
       4222.4000       17.906904      0.10656259
       4222.8900       17.886649      0.10644823
       4223.3800       17.812562      0.10621727
       4223.8700       17.793403      0.10611410
       4224.3600       17.817552      0.10615424
       4224.8500       17.911331      0.10641247
       4225.3400       17.787960      0.10599914
       4225.8300       17.756017      0.10583063
       4226.3200       17.723447      0.10566725
       4226.8100       17.717004      0.10559568
       4227.3000       17.866470      0.10601301
       4227.7900       17.831240      0.10590191
       4228.2800       17.864054      0.10597374
       4228.7700       17.816137      0.10580331
       4229.2600       17.562829      0.10503890
       4229.7500       17.602223      0.10512289
       4230.2400       17.766906      0.10554487
       4230.7300       17.641813      0.10515849
       4231.2200       17.600495      0.10502600
       4231.7100       17.601267      0.10498850
       4232.2000       17.590215      0.10491227
       4232.6900       17.570731      0.10480562
       4233.1800       17.584414      0.10480627
       4233.6700       17.676775      0.10506411
       4234.1600       17.699927      0.10513043
       4234.6500       17.746554      0.10523009
       4235.1400       17.808068      0.10537167
       4235.6300       17.790967      0.10528769
       4236.1200       17.732266      0.10507346
       4236.6100       17.730208      0.10506294
       4237.1000       17.781253      0.10520546
       4237.5900       17.638976      0.10474390
       4238.0800       17.563741      0.10449607
       4238.5700       17.673474      0.10479951
       4239.0600       17.699174      0.10481988
       4239.5500       17.618439      0.10454747
       4240.0400       17.647416      0.10460688
       4240.5300       17.846008      0.10514709
       4241.0200       17.754016      0.10486394
       4241.5100       17.465042      0.10401071
       4242.0000       17.533878      0.10418367
       4242.4900       17.627770      0.10442375
       4242.9800       17.615777      0.10435285
       4243.4700       17.684198      0.10453215
       4243.9600       17.695261      0.10455042
       4244.4500       17.612565      0.10429958
       4244.9400       17.529135      0.10408659
       4245.4300       17.510464      0.10409880
       4245.9200       17.594748      0.10440880
       4246.4100       17.725439      0.10480405
       4246.9000       17.720078      0.10465310
       4247.3900       17.620746      0.10416836
       4247.8800       17.644001      0.10414274
       4248.3700       17.693444      0.10422734
       4248.8600       17.619740      0.10398899
       4249.3500       17.546116      0.10380223
       4249.8400       17.553786      0.10380675
       4250.3300       17.642974      0.10401706
       4250.8200       17.678222      0.10408566
       4251.3100       17.615011      0.10386550
       4251.8000       17.632372      0.10390231
       4252.2900       17.646263      0.10395855
       4252.7800       17.599641      0.10381539
       4253.2700       17.606388      0.10377437
       4253.7600       17.605871      0.10363929
       4254.2500       17.589628      0.10352064
       4254.7400       17.749842      0.10399895
       4255.2300       17.890118      0.10437237
       4255.7200       17.843410      0.10423105
       4256.2100       17.852182      0.10427607
       4256.7000       17.811387      0.10413286
       4257.1900       17.753925      0.10394158
       4257.6800       17.784247      0.10400868
       4258.1700       17.810840      0.10401793
       4258.6600       17.791439      0.10394617
       4259.1500       17.688451      0.10368315
       4259.6400       17.645803      0.10353489
       4260.1300       17.747665      0.10377028
       4260.6200       17.737551      0.10370301
       4261.1100       17.640621      0.10343451
       4261.6000       17.652593      0.10347822
       4262.0900       17.751733      0.10372672
       4262.5800       17.692591      0.10355464
       4263.0700       17.593319      0.10325980
       4263.5600       17.574394      0.10317423
       4264.0500       17.496577      0.10293423
       4264.5400       17.529026      0.10302778
       4265.0300       17.664700      0.10341493
       4265.5200       17.582058      0.10317026
       4266.0100       17.514979      0.10296525
       4266.5000       17.687688      0.10345237
       4266.9900       17.693825      0.10345563
       4267.4800       17.596483      0.10312944
       4267.9700       17.628536      0.10320694
       4268.4600       17.665642      0.10330112
       4268.9500       17.720123      0.10345861
       4269.4400       17.603769      0.10311422
       4269.9300       17.522292      0.10287859
       4270.4200       17.629608      0.10316915
       4270.9100       17.555115      0.10291304
       4271.4000       17.527688      0.10285114
       4271.8900       17.589011      0.10300541
       4272.3800       17.634603      0.10312032
       4272.8700       17.469797      0.10268855
       4273.3600       17.325709      0.10223493
       4273.8500       17.434206      0.10254089
       4274.3400       17.387712      0.10242441
       4274.8300       17.326125      0.10224213
       4275.3200       17.392731      0.10243491
       4275.8100       17.453349      0.10257828
       4276.3000       17.513745      0.10276370
       4276.7900       17.530819      0.10279215
       4277.2800       17.434668      0.10251980
       4277.7700       17.498974      0.10272636
       4278.2600       17.586576      0.10292384
       4278.7500       17.413097      0.10242718
       4279.2400       17.461095      0.10255291
       4279.7300       17.463369      0.10252090
       4280.2200       17.468883      0.10256641
       4280.7100       17.437709      0.10245702
       4281.2000       17.369783      0.10221923
       4281.6900       17.394533      0.10230517
       4282.1800       17.446634      0.10246696
       4282.6700       17.414407      0.10239515
       4283.1600       17.315332      0.10211804
       4283.6500       17.325906      0.10212070
       4284.1400       17.341045      0.10216984
       4284.6300       17.215445      0.10184715
       4285.1200       17.257604      0.10193861
       4285.6100       17.386426      0.10228829
       4286.1000       17.310765      0.10208402
       4286.5900       17.389452      0.10229220
       4287.0800       17.404311      0.10234537
       4287.5700       17.286237      0.10200965
       4288.0600       17.231890      0.10187300
       4288.5500       17.306752      0.10182072
       4289.0400       17.303908      0.10316627
       4289.5300       17.262201      0.10342541
       4290.0200       17.333239      0.10231577
       4290.5100       17.305255      0.10194568
       4291.0000       17.290771      0.10203899
       4291.4900       17.320008      0.10211582
       4291.9800       17.193067      0.10173882
       4292.4700       17.079302      0.10141306
       4292.9600       17.173924      0.10170816
       4293.4500       17.210195      0.10176209
       4293.9400       17.198220      0.10166063
       4294.4300       17.186556      0.10160188
       4294.9200       17.223721      0.10170572
       4295.4100       17.286205      0.10187520
       4295.9000       17.305567      0.10192495
       4296.3900       17.235429      0.10171197
       4296.8800       17.147974      0.10144514
       4297.3700       17.137909      0.10141988
       4297.8600       17.181637      0.10154930
       4298.3500       17.202714      0.10161486
       4298.8400       17.179352      0.10155438
       4299.3300       17.116994      0.10138461
       4299.8200       16.999889      0.10100170
       4300.3100       16.901108      0.10060849
       4300.8000       17.048446      0.10098202
       4301.2900       17.173335      0.10133778
       4301.7800       17.170732      0.10134371
       4302.2700       17.196842      0.10142545
       4302.7600       17.066060      0.10103976
       4303.2500       16.913948      0.10061630
       4303.7400       17.013044      0.10091902
       4304.2300       17.052451      0.10102326
       4304.7200       16.819362      0.10035849
       4305.2100       16.740235      0.10013901
       4305.7000       16.799239      0.10028881
       4306.1900       16.750202      0.10014705
       4306.6800       16.732308      0.10011529
       4307.1700       16.714095      0.10005739
       4307.6600       16.812565      0.10034100
       4308.1500       16.989925      0.10088099
       4308.6400       16.968688      0.10080648
       4309.1300       16.854862      0.10045126
       4309.6200       16.823832      0.10037686
       4310.1100       16.852716      0.10048169
       4310.6000       16.818139      0.10039657
       4311.0900       16.783263      0.10029978
       4311.5800       16.801989      0.10037103
       4312.0700       16.774737      0.10031536
       4312.5600       16.805178      0.10042189
       4313.0500       16.823892      0.10052857
       4313.5400       16.707853      0.10025181
       4314.0300       16.799915      0.10048887
       4314.5200       16.906905      0.10071580
       4315.0100       16.826272      0.10043551
       4315.5000       16.818564      0.10042426
       4315.9900       16.860474      0.10055528
       4316.4800       16.863622      0.10055701
       4316.9700       16.850687      0.10054016
       4317.4600       16.916177      0.10075122
       4317.9500       16.959234      0.10085456
       4318.4400       16.939791      0.10076977
       4318.9300       16.947593      0.10081001
       4319.4200       16.882466      0.10064064
       4319.9100       16.965107      0.10096114
       4320.4000       17.089331      0.10135657
       4320.8900       17.082818      0.10130705
       4321.3800       17.014576      0.10108803
       4321.8700       17.041963      0.10111282
       4322.3600       17.052360      0.10112412
       4322.8500       16.978984      0.10091608
       4323.3400       16.921804      0.10076016
       4323.8300       17.040700      0.10113383
       4324.3200       17.118646      0.10140832
       4324.8100       16.993208      0.10104170
       4325.3000       16.871392      0.10068373
       4325.7900       16.999063      0.10102494
       4326.2800       17.190074      0.10154991
       4326.7700       17.253281      0.10175804
       4327.2600       17.161945      0.10146880
       4327.7500       17.260936      0.10175956
       4328.2400       17.308955      0.10194476
       4328.7300       17.126166      0.10139031
       4329.2200       17.149407      0.10145377
       4329.7100       17.222789      0.10169843
       4330.2000       17.110592      0.10139205
       4330.6900       16.991347      0.10105757
       4331.1800       17.120205      0.10140685
       4331.6700       17.154287      0.10154075
       4332.1600       17.059101      0.10127705
       4332.6500       17.103563      0.10140911
       4333.1400       17.079596      0.10136755
       4333.6300       17.043898      0.10123089
       4334.1200       17.187003      0.10162022
       4334.6100       17.269960      0.10192629
       4335.1000       17.319386      0.10206501
       4335.5900       17.195075      0.10173040
       4336.0800       17.182820      0.10169867
       4336.5700       17.141100      0.10155155
       4337.0600       17.213857      0.10175626
       4337.5500       17.350932      0.10216568
       4338.0400       17.408899      0.10233603
       4338.5300       17.386211      0.10227927
       4339.0200       17.484898      0.10256939
       4339.5100       17.418099      0.10236955
       4340.0000       17.222946      0.10176975
       4340.4900       17.389661      0.10230490
       4340.9800       17.613087      0.10290213
       4341.4700       17.644681      0.10293986
       4341.9600       17.625124      0.10289917
       4342.4500       17.652504      0.10297906
       4342.9400       17.781728      0.10336393
       4343.4300       17.669024      0.10304749
       4343.9200       17.610866      0.10287988
       4344.4100       17.643113      0.10298167
       4344.9000       17.668091      0.10306187
       4345.3900       17.707032      0.10321751
       4345.8800       17.717959      0.10324949
       4346.3700       17.617611      0.10298226
       4346.8600       17.719886      0.10332804
       4347.3500       17.741900      0.10330391
       4347.8400       17.594407      0.10275553
       4348.3300       17.668070      0.10298359
       4348.8200       17.791236      0.10329961
       4349.3100       17.802861      0.10331138
       4349.8000       17.853739      0.10346633
       4350.2900       18.023961      0.10395468
       4350.7800       18.050090      0.10402905
       4351.2700       17.968136      0.10377130
       4351.7600       18.234275      0.10451292
       4352.2500       18.351406      0.10488455
       4352.7400       18.234049      0.10458692
       4353.2300       18.416923      0.10511448
       4353.7200       18.480725      0.10527640
       4354.2100       18.429294      0.10513173
       4354.7000       18.458289      0.10521868
       4355.1900       18.485383      0.10531860
       4355.6800       18.602994      0.10574488
       4356.1700       18.791851      0.10656249
       4356.6600       19.012844      0.10801661
       4357.1500       19.101524      0.10958437
       4357.6400       19.097740      0.11042526
       4358.1300       19.200581      0.11032440
       4358.6200       19.270725      0.10940847
       4359.1100       19.364214      0.10874778
       4359.6000       19.549367      0.10877796
       4360.0900       19.724390      0.10902277
       4360.5800       20.124577      0.11000733
       4361.0700       20.651753      0.11139020
       4361.5600       21.004937      0.11233377
       4362.0500       21.487944      0.11361142
       4362.5400       22.525180      0.11624964
       4363.0300       24.277261      0.12058955
       4363.5200       26.958437      0.12696955
       4364.0100       30.360198      0.13467984
       4364.5000       33.782857      0.14206949
       4364.9900       36.355333      0.14739873
       4365.4800       36.983286      0.14867197
       4365.9700       35.663908      0.14599546
       4366.4600       32.644453      0.13968803
       4366.9500       28.510470      0.13058530
       4367.4400       24.929344      0.12219595
       4367.9300       22.776381      0.11685852
       4368.4200       21.698210      0.11409468
       4368.9100       21.106610      0.11259196
       4369.4000       20.846820      0.11194423
       4369.8900       20.573312      0.11120294
       4370.3800       20.354556      0.11058866
       4370.8700       20.168842      0.11008367
       4371.3600       19.937824      0.10947584
       4371.8500       19.825966      0.10921774
       4372.3400       19.777233      0.10908590
       4372.8300       19.801338      0.10916279
       4373.3200       19.565261      0.10860582
       4373.8100       19.373524      0.10810270
       4374.3000       19.307202      0.10792544
       4374.7900       19.290927      0.10784924
       4375.2800       19.455090      0.10829119
       4375.7700       19.459043      0.10831646
       4376.2600       19.330216      0.10797706
       4376.7500       19.232753      0.10768445
       4377.2400       19.095644      0.10733237
       4377.7300       18.938416      0.10688612
       4378.2200       18.808208      0.10652906
       4378.7100       18.782846      0.10646341
       4379.2000       18.653928      0.10605785
       4379.6900       18.469398      0.10558165
       4380.1800       18.454976      0.10557595
       4380.6700       18.532097      0.10578940
       4381.1600       18.478814      0.10561962
       4381.6500       18.444115      0.10556063
       4382.1400       18.499916      0.10573514
       4382.6300       18.328887      0.10521611
       4383.1200       18.192092      0.10484364
       4383.6100       18.152676      0.10474798
       4384.1000       18.144074      0.10477951
       4384.5900       18.226933      0.10502452
       4385.0800       18.250261      0.10506790
       4385.5700       18.164611      0.10483594
       4386.0600       17.843033      0.10392207
       4386.5500       18.057663      0.10457282
       4387.0400       18.094446      0.10465900
       4387.5300       18.028886      0.10447291
       4388.0200       17.902437      0.10410700
       4388.5100       17.811616      0.10373735
       4389.0000       17.907800      0.10399067
       4389.4900       17.802968      0.10375154
       4389.9800       17.702166      0.10346057
       4390.4700       17.730413      0.10355986
       4390.9600       17.949456      0.10420127
       4391.4500       17.745793      0.10362958
       4391.9400       17.703042      0.10352411
       4392.4300       17.780379      0.10375016
       4392.9200       17.749994      0.10365624
       4393.4100       17.881032      0.10408058
       4393.9000       17.841311      0.10397294
       4394.3900       17.847848      0.10399142
       4394.8800       17.841999      0.10390624
       4395.3700       17.817569      0.10380168
       4395.8600       17.792471      0.10371407
       4396.3500       17.908339      0.10404969
       4396.8400       17.670423      0.10337929
       4397.3300       17.627851      0.10325133
       4397.8200       17.705030      0.10350352
       4398.3100       17.733583      0.10357529
       4398.8000       17.715884      0.10359583
       4399.2900       17.580618      0.10323965
       4399.7800       17.636064      0.10343731
       4400.2700       17.631308      0.10346621
       4400.7600       17.697800      0.10366322
       4401.2500       17.680873      0.10359944
       4401.7400       17.675765      0.10355686
       4402.2300       17.580227      0.10327345
       4402.7200       17.480812      0.10299681
       4403.2100       17.632255      0.10346764
       4403.7000       17.767451      0.10386962
       4404.1900       17.597026      0.10337074
       4404.6800       17.476021      0.10303533
       4405.1700       17.640925      0.10353213
       4405.6600       17.773590      0.10392305
       4406.1500       17.697481      0.10374843
       4406.6400       17.727072      0.10385739
       4407.1300       17.717203      0.10385262
       4407.6200       17.652081      0.10370405
       4408.1100       17.660216      0.10375596
       4408.6000       17.726336      0.10394806
       4409.0900       17.786868      0.10408387
       4409.5800       17.779043      0.10404337
       4410.0700       17.859140      0.10431499
       4410.5600       17.915757      0.10454239
       4411.0500       17.933749      0.10465697
       4411.5400       17.994141      0.10482636
       4412.0300       18.146194      0.10523780
       4412.5200       18.204768      0.10538996
       4413.0100       18.182076      0.10533291
       4413.5000       18.200609      0.10541110
       4413.9900       18.066559      0.10504176
       4414.4800       18.002683      0.10490535
       4414.9700       17.950849      0.10481755
       4415.4600       17.933324      0.10477755
       4415.9500       17.915048      0.10468889
       4416.4400       17.817070      0.10437709
       4416.9300       17.789776      0.10431913
       4417.4200       17.754291      0.10421704
       4417.9100       17.749282      0.10420323
       4418.4000       17.690925      0.10409943
       4418.8900       17.655833      0.10402379
       4419.3800       17.855690      0.10459621
       4419.8700       18.059413      0.10522932
       4420.3600       18.000151      0.10512723
       4420.8500       17.933440      0.10489262
       4421.3400       17.899687      0.10473375
       4421.8300       17.883430      0.10472596
       4422.3200       17.801714      0.10451223
       4422.8100       17.718578      0.10428414
       4423.3000       17.756270      0.10442455
       4423.7900       17.694286      0.10428473
       4424.2800       17.659279      0.10423152
       4424.7700       17.685683      0.10431654
       4425.2600       17.614898      0.10414353
       4425.7500       17.669906      0.10433127
       4426.2400       17.590119      0.10406469
       4426.7300       17.539409      0.10392028
       4427.2200       17.681588      0.10435706
       4427.7100       17.770664      0.10461881
       4428.2000       17.711085      0.10445487
       4428.6900       17.639284      0.10428353
       4429.1800       17.640560      0.10429460
       4429.6700       17.722338      0.10450949
       4430.1600       17.542018      0.10403042
       4430.6500       17.573261      0.10420257
       4431.1400       17.757502      0.10477710
       4431.6300       17.683479      0.10456766
       4432.1200       17.590043      0.10427016
       4432.6100       17.676067      0.10455427
       4433.1000       17.667485      0.10454938
       4433.5900       17.555412      0.10419974
       4434.0800       17.761436      0.10481543
       4434.5700       17.679432      0.10456264
       4435.0600       17.699143      0.10465593
       4435.5500       17.828397      0.10503942
       4436.0400       17.825359      0.10494476
       4436.5300       17.772613      0.10481699
       4437.0200       17.733195      0.10470348
       4437.5100       17.726519      0.10477000
       4438.0000       17.690216      0.10469392
       4438.4900       17.743333      0.10479509
       4438.9800       17.717487      0.10475215
       4439.4700       17.745683      0.10489693
       4439.9600       17.736913      0.10487604
       4440.4500       17.866027      0.10519786
       4440.9400       17.867275      0.10523059
       4441.4300       17.796299      0.10502704
       4441.9200       17.895789      0.10530528
       4442.4100       17.848297      0.10507123
       4442.9000       17.875645      0.10515899
       4443.3900       17.948501      0.10538244
       4443.8800       17.890802      0.10523682
       4444.3700       17.921971      0.10534863
       4444.8600       17.982122      0.10555120
       4445.3500       18.143074      0.10602973
       4445.8400       18.020459      0.10567247
       4446.3300       17.753058      0.10492933
       4446.8200       17.567525      0.10436197
       4447.3100       17.658498      0.10458950
       4447.8000       17.775404      0.10494615
       4448.2900       17.769615      0.10497580
       4448.7800       17.832951      0.10515692
       4449.2700       17.752435      0.10491420
       4449.7600       17.715678      0.10480848
       4450.2500       17.757780      0.10493978
       4450.7400       17.777801      0.10502372
       4451.2300       17.775806      0.10501947
       4451.7200       17.774284      0.10501394
       4452.2100       17.700947      0.10476759
       4452.7000       17.725358      0.10485586
       4453.1900       17.759184      0.10496239
       4453.6800       17.801252      0.10509977
       4454.1700       17.767273      0.10500240
       4454.6600       17.742050      0.10492514
       4455.1500       17.865282      0.10541006
       4455.6400       17.967040      0.10692153
       4456.1300       17.993423      0.10617071
       4456.6200       18.106545      0.10593577
       4457.1100       18.106310      0.10597739
       4457.6000       18.020605      0.10578194
       4458.0900       18.049477      0.10587176
       4458.5800       17.993383      0.10570841
       4459.0700       17.920897      0.10547804
       4459.5600       17.927025      0.10549897
       4460.0500       17.872797      0.10536675
       4460.5400       17.777934      0.10506025
       4461.0300       17.752654      0.10499261
       4461.5200       17.938791      0.10554808
       4462.0100       17.824491      0.10522914
       4462.5000       17.782958      0.10509459
       4462.9900       17.875905      0.10535168
       4463.4800       17.875783      0.10531499
       4463.9700       17.784064      0.10502922
       4464.4600       17.709983      0.10484237
       4464.9500       17.752489      0.10497406
       4465.4400       17.744236      0.10496308
       4465.9300       17.588594      0.10449426
       4466.4200       17.509052      0.10425796
       4466.9100       17.653857      0.10466753
       4467.4000       17.790494      0.10501583
       4467.8900       17.722143      0.10485469
       4468.3800       17.642135      0.10461464
       4468.8700       17.668192      0.10466324
       4469.3600       17.617031      0.10450891
       4469.8500       17.620046      0.10449848
       4470.3400       17.633983      0.10453510
       4470.8300       17.595907      0.10443667
       4471.3200       17.649669      0.10458326
       4471.8100       17.663513      0.10459794
       4472.3000       17.788977      0.10497116
       4472.7900       17.801375      0.10499200
       4473.2800       17.660644      0.10455861
       4473.7700       17.627583      0.10446220
       4474.2600       17.589310      0.10434998
       4474.7500       17.647742      0.10451803
       4475.2400       17.601358      0.10436640
       4475.7300       17.517741      0.10409480
       4476.2200       17.646940      0.10445858
       4476.7100       17.703073      0.10461413
       4477.2000       17.634177      0.10441740
       4477.6900       17.559094      0.10421606
       4478.1800       17.573393      0.10423003
       4478.6700       17.648109      0.10441057
       4479.1600       17.703240      0.10453563
       4479.6500       17.641652      0.10435573
       4480.1400       17.637420      0.10433035
       4480.6300       17.683543      0.10444706
       4481.1200       17.517008      0.10392788
       4481.6100       17.589577      0.10413577
       4482.1000       17.619878      0.10422781
       4482.5900       17.585003      0.10409186
       4483.0800       17.626388      0.10420910
       4483.5700       17.689920      0.10444389
       4484.0600       17.577586      0.10415157
       4484.5500       17.524661      0.10394832
       4485.0400       17.680508      0.10418879
       4485.5300       17.684802      0.10420501
       4486.0200       17.798576      0.10453404
       4486.5100       17.815557      0.10452009
       4487.0000       17.622836      0.10390267
       4487.4900       17.673440      0.10404253
       4487.9800       17.729652      0.10419090
       4488.4700       17.726134      0.10416613
       4488.9600       17.735232      0.10419083
       4489.4500       17.664853      0.10392187
       4489.9400       17.665554      0.10396666
       4490.4300       17.902986      0.10456439
       4490.9200       17.901595      0.10449437
       4491.4100       17.749996      0.10400508
       4491.9000       17.817655      0.10415016
       4492.3900       17.914582      0.10444269
       4492.8800       18.064201      0.10484731
       4493.3700       18.108476      0.10495626
       4493.8600       18.227866      0.10522373
       4494.3500       18.379120      0.10563883
       4494.8400       18.797364      0.10681631
       4495.3300       19.374793      0.10837966
       4495.8200       19.713498      0.10930291
       4496.3100       20.380664      0.11108133
       4496.8000       20.790476      0.11218882
       4497.2900       20.594862      0.11162174
       4497.7800       20.243142      0.11065841
       4498.2700       19.754917      0.10938127
       4498.7600       19.053566      0.10641348
       4499.2500       18.619436      0.11107086
       4499.7400       18.419489      0.12421634
       4500.2300       18.169174      0.10563392
       4500.7200       18.059138      0.10408511
       4501.2100       17.936466      0.10405248
       4501.7000       17.864150      0.10374645
       4502.1900       17.794418      0.10353676
       4502.6800       17.729667      0.10333931
       4503.1700       17.678127      0.10317080
       4503.6600       17.734683      0.10332901
       4504.1500       17.726825      0.10325133
       4504.6400       17.722921      0.10320472
       4505.1300       17.775173      0.10329393
       4505.6200       17.780597      0.10335241
       4506.1100       17.826870      0.10347422
       4506.6000       17.614185      0.10281691
       4507.0900       17.744628      0.10314519
       4507.5800       17.575295      0.10265285
       4508.0700       17.459381      0.10228874
       4508.5600       17.522876      0.10241767
       4509.0500       17.622189      0.10266560
       4509.5400       17.574931      0.10250945
       4510.0300       17.488716      0.10225682
       4510.5200       17.416986      0.10206768
       4511.0100       17.519013      0.10231571
       4511.5000       17.387009      0.10189490
       4511.9900       17.401221      0.10188966
       4512.4800       17.227816      0.10140282
       4512.9700       17.361434      0.10177598
       4513.4600       17.488305      0.10210535
       4513.9500       17.521608      0.10217463
       4514.4400       17.501368      0.10208349
       4514.9300       17.326124      0.10152487
       4515.4200       17.407991      0.10177160
       4515.9100       17.424457      0.10180895
       4516.4000       17.367886      0.10158091
       4516.8900       17.312453      0.10139705
       4517.3800       17.305672      0.10137054
       4517.8700       17.237443      0.10116517
       4518.3600       17.280622      0.10128744
       4518.8500       17.256954      0.10118049
       4519.3400       17.024121      0.10047984
       4519.8300       16.946939      0.10022884
       4520.3200       17.093126      0.10066682
       4520.8100       17.110590      0.10072427
       4521.3000       17.155431      0.10077579
       4521.7900       17.212741      0.10092478
       4522.2800       17.127234      0.10065336
       4522.7700       17.035186      0.10034178
       4523.2600       17.027656      0.10031440
       4523.7500       17.051050      0.10034338
       4524.2400       16.962649      0.10005270
       4524.7300       16.882640     0.099792469
       4525.2200       16.933997     0.099914791
       4525.7100       16.996190      0.10008241
       4526.2000       17.033947      0.10018794
       4526.6900       17.012780      0.10014086
       4527.1800       16.988020      0.10003620
       4527.6700       16.824856     0.099521613
       4528.1600       16.694616     0.099125270
       4528.6500       16.883139     0.099647659
       4529.1400       16.944968     0.099825475
       4529.6300       16.863979     0.099559195
       4530.1200       16.857360     0.099479609
       4530.6100       16.878707     0.099534669
       4531.1000       16.818004     0.099387108
       4531.5900       16.687491     0.099006450
       4532.0800       16.761276     0.099141108
       4532.5700       16.740780     0.099001144
       4533.0600       16.770995     0.099059893
       4533.5500       17.004528     0.099699058
       4534.0400       16.965839     0.099541642
       4534.5300       16.883984     0.099246560
       4535.0200       16.827083     0.099071457
       4535.5100       16.704464     0.098710225
       4536.0000       16.687827     0.098607690
       4536.4900       16.695674     0.098612580
       4536.9800       16.708873     0.098610293
       4537.4700       16.782443     0.098814261
       4537.9600       16.766959     0.098783505
       4538.4500       16.606635     0.098239058
       4538.9400       16.594507     0.098116133
       4539.4300       16.684378     0.098328597
       4539.9200       16.808873     0.098637257
       4540.4100       16.804231     0.098619043
       4540.9000       16.702994     0.098325294
       4541.3900       16.803226     0.098614587
       4541.8800       16.809695     0.098610377
       4542.3700       16.735111     0.098363928
       4542.8600       16.565719     0.097842925
       4543.3500       16.471122     0.097593072
       4543.8400       16.649979     0.098076533
       4544.3300       16.623879     0.097922457
       4544.8200       16.603951     0.097874789
       4545.3100       16.621830     0.097867107
       4545.8000       16.637567     0.097880642
       4546.2900       16.667734     0.097966608
       4546.7800       16.714881     0.098076407
       4547.2700       16.681204     0.097908233
       4547.7600       16.727058     0.098058392
       4548.2500       16.637905     0.097751623
       4548.7400       16.636932     0.097671754
       4549.2300       16.575300     0.097442541
       4549.7200       16.551891     0.097391621
       4550.2100       16.649245     0.097670106
       4550.7000       16.624642     0.097564621
       4551.1900       16.627401     0.097494537
       4551.6800       16.581232     0.097340491
       4552.1700       16.542166     0.097240059
       4552.6600       16.518092     0.097160687
       4553.1500       16.521589     0.097146019
       4553.6400       16.468037     0.096961397
       4554.1300       16.465656     0.096902305
       4554.6200       16.479230     0.096903241
       4555.1100       16.391193     0.096604043
       4555.6000       16.482065     0.096835861
       4556.0900       16.598656     0.097186332
       4556.5800       16.494367     0.096868597
       4557.0700       16.496724     0.096844638
       4557.5600       16.514604     0.096872157
       4558.0500       16.544886     0.096934199
       4558.5400       16.621153     0.097122579
       4559.0300       16.550262     0.096877956
       4559.5200       16.528030     0.096754319
       4560.0100       16.552036     0.096820932
       4560.5000       16.448761     0.096517229
       4560.9900       16.436172     0.096427524
       4561.4800       16.547402     0.096715293
       4561.9700       16.401880     0.096283567
       4562.4600       16.344874     0.096076633
       4562.9500       16.299370     0.095939921
       4563.4400       16.414731     0.096268248
       4563.9300       16.410269     0.096232788
       4564.4200       16.400481     0.096144397
       4564.9100       16.528502     0.096479551
       4565.4000       16.462337     0.096248307
       4565.8900       16.315046     0.095789246
       4566.3800       16.367069     0.095923647
       4566.8700       16.479587     0.096263295
       4567.3600       16.432472     0.096090632
       4567.8500       16.395337     0.095911264
       4568.3400       16.368060     0.095812842
       4568.8300       16.366438     0.095814347
       4569.3200       16.281892     0.095520818
       4569.8100       16.299598     0.095528191
       4570.3000       16.409738     0.095823426
       4570.7900       16.442065     0.095893318
       4571.2800       16.470638     0.095949886
       4571.7700       16.395400     0.095710502
       4572.2600       16.438552     0.095805189
       4572.7500       16.431161     0.095760330
       4573.2400       16.336736     0.095469542
       4573.7300       16.294201     0.095314172
       4574.2200       16.265648     0.095228151
       4574.7100       16.363446     0.095470363
       4575.2000       16.537920     0.095919791
       4575.6900       16.564147     0.095989063
       4576.1800       16.432979     0.095588387
       4576.6700       16.335762     0.095275725
       4577.1600       16.268017     0.095051504
       4577.6500       16.341794     0.095233620
       4578.1400       16.424218     0.095437835
       4578.6300       16.334468     0.095158431
       4579.1200       16.273111     0.094964088
       4579.6100       16.279787     0.094958986
       4580.1000       16.286914     0.094925545
       4580.5900       16.316232     0.094938284
       4581.0800       16.291394     0.094806829
       4581.5700       16.329819     0.094888359
       4582.0600       16.470357     0.095264704
       4582.5500       16.420042     0.095071396
       4583.0400       16.259927     0.094713214
       4583.5300       16.303594     0.093678606
       4584.0200       16.376571     0.097775350
       4584.5100       16.315515      0.10313132
       4585.0000       16.167649     0.099017172
       4585.4900       16.105026     0.092742797
       4585.9800       16.170729     0.094245670
       4586.4700       16.201455     0.094183419
       4586.9600       16.190869     0.094115083
       4587.4500       16.172951     0.094000983
       4587.9400       16.147847     0.093922744
       4588.4300       16.216964     0.094079737
       4588.9200       16.215958     0.093999533
       4589.4100       16.134073     0.093716579
       4589.9000       16.139177     0.093699197
       4590.3900       16.193229     0.093836470
       4590.8800       16.261879     0.094002784
       4591.3700       16.205205     0.093816099
       4591.8600       16.101669     0.093505639
       4592.3500       16.096827     0.093471034
       4592.8400       16.143530     0.093569516
       4593.3300       16.122422     0.093448778
       4593.8200       16.068781     0.093247544
       4594.3100       16.067200     0.093228386
       4594.8000       16.128062     0.093374761
       4595.2900       16.166071     0.093447249
       4595.7800       16.061705     0.093116878
       4596.2700       16.076463     0.093158638
       4596.7600       16.118685     0.093258474
       4597.2500       16.031884     0.092963688
       4597.7400       15.949478     0.092681507
       4598.2300       15.984484     0.092756450
       4598.7200       16.025804     0.092844079
       4599.2100       15.997704     0.092711088
       4599.7000       16.031594     0.092783475
       4600.1900       16.051795     0.092814268
       4600.6800       15.953744     0.092504993
       4601.1700       15.929741     0.092391403
       4601.6600       15.940072     0.092409306
       4602.1500       15.945119     0.092410264
       4602.6400       16.027715     0.092606389
       4603.1300       15.981593     0.092460557
       4603.6200       16.035507     0.092592125
       4604.1100       16.039556     0.092572056
       4604.6000       15.884945     0.092088800
       4605.0900       15.949548     0.092209640
       4605.5800       16.058475     0.092492833
       4606.0700       16.062759     0.092525029
       4606.5600       16.002941     0.092323430
       4607.0500       16.015709     0.092344172
       4607.5400       15.953291     0.092136923
       4608.0300       15.936871     0.092038392
       4608.5200       16.038493     0.092321603
       4609.0100       16.026250     0.092259545
       4609.5000       16.078005     0.092342185
       4609.9900       16.091940     0.092359900
       4610.4800       16.138790     0.092473166
       4610.9700       16.082766     0.092245499
       4611.4600       15.968789     0.092092711
       4611.9500       15.906730     0.091912829
       4612.4400       15.890367     0.091626365
       4612.9300       15.985342     0.091880832
       4613.4200       15.861485     0.091497399
       4613.9100       15.750528     0.091136581
       4614.4000       15.788800     0.091232335
       4614.8900       15.882585     0.091471129
       4615.3800       15.849489     0.091347659
       4615.8700       15.773611     0.091096268
       4616.3600       15.797958     0.091120272
       4616.8500       15.796130     0.091069433
       4617.3400       15.938068     0.091443910
       4617.8300       15.869355     0.091234040
       4618.3200       15.770920     0.090919490
       4618.8100       15.787822     0.090950963
       4619.3000       15.822255     0.091029880
       4619.7900       15.928367     0.091311438
       4620.2800       15.849026     0.091071285
       4620.7700       15.779418     0.090814838
       4621.2600       15.939954     0.091233933
       4621.7500       15.964646     0.091278856
       4622.2400       15.865440     0.090960724
       4622.7300       15.880638     0.090990238
       4623.2200       15.881577     0.090962379
       4623.7100       15.970129     0.091175983
       4624.2000       15.888673     0.090951766
       4624.6900       15.769200     0.090575481
       4625.1800       15.814189     0.090624243
       4625.6700       15.757680     0.090454685
       4626.1600       15.716433     0.090342786
       4626.6500       15.792138     0.090509990
       4627.1400       15.835705     0.090598036
       4627.6300       15.732137     0.090293658
       4628.1200       15.619581     0.089933633
       4628.6100       15.569768     0.089766914
       4629.1000       15.657534     0.089949789
       4629.5900       15.730721     0.090059064
       4630.0800       15.664313     0.089844387
       4630.5700       15.655126     0.089794388
       4631.0600       15.711558     0.089928958
       4631.5500       15.670071     0.089816706
       4632.0400       15.662877     0.089764697
       4632.5300       15.653632     0.089697778
       4633.0200       15.560341     0.089402054
       4633.5100       15.597975     0.089458184
       4634.0000       15.707436     0.089726439
       4634.4900       15.674637     0.089607312
       4634.9800       15.592457     0.089359319
       4635.4700       15.672050     0.089525489
       4635.9600       15.693310     0.089497001
       4636.4500       15.573820     0.089120379
       4636.9400       15.500744     0.088899247
       4637.4300       15.520191     0.088910274
       4637.9200       15.643145     0.089209408
       4638.4100       15.693253     0.089349063
       4638.9000       15.631858     0.089166985
       4639.3900       15.655584     0.089179948
       4639.8800       15.672996     0.089182562
       4640.3700       15.664436     0.089120388
       4640.8600       15.606309     0.088934009
       4641.3500       15.454970     0.088500173
       4641.8400       15.429852     0.088405754
       4642.3300       15.398734     0.088288635
       4642.8200       15.415731     0.088292037
       4643.3100       15.538285     0.088585143
       4643.8000       15.550707     0.088595353
       4644.2900       15.576073     0.088660917
       4644.7800       15.555624     0.088578317
       4645.2700       15.530910     0.088475045
       4645.7600       15.579922     0.088600825
       4646.2500       15.576001     0.088563375
       4646.7400       15.526561     0.088385100
       4647.2300       15.521053     0.088341414
       4647.7200       15.479267     0.088176771
       4648.2100       15.481110     0.088140613
       4648.7000       15.502271     0.088204467
       4649.1900       15.440712     0.087995906
       4649.6800       15.363702     0.087741317
       4650.1700       15.319840     0.087621416
       4650.6600       15.391295     0.087795072
       4651.1500       15.440946     0.087879588
       4651.6400       15.438814     0.087845868
       4652.1300       15.388038     0.087695646
       4652.6200       15.427261     0.087777502
       4653.1100       15.483500     0.087894855
       4653.6000       15.556030     0.088050518
       4654.0900       15.558677     0.088022270
       4654.5800       15.549092     0.088004511
       4655.0700       15.524427     0.087919050
       4655.5600       15.553362     0.087965271
       4656.0500       15.635349     0.088194206
       4656.5400       15.707284     0.088376136
       4657.0300       15.655467     0.088190483
       4657.5200       15.405264     0.087453240
       4658.0100       15.383124     0.087372341
       4658.5000       15.429332     0.087484747
       4658.9900       15.389454     0.087375533
       4659.4800       15.320226     0.087168498
       4659.9700       15.325104     0.087152331
       4660.4600       15.349765     0.087192728
       4660.9500       15.275107     0.086938895
       4661.4400       15.227702     0.086817071
       4661.9300       15.239457     0.086830892
       4662.4200       15.111073     0.086419889
       4662.9100       15.199157     0.086661092
       4663.4000       15.291585     0.086881377
       4663.8900       15.258911     0.086750058
       4664.3800       15.317048     0.086917061
       4664.8700       15.130426     0.086365545
       4665.3600       15.036077     0.086087173
       4665.8500       15.240027     0.086622983
       4666.3400       15.248715     0.086643292
       4666.8300       15.210279     0.086544701
       4667.3200       15.169154     0.086351643
       4667.8100       15.218170     0.086471032
       4668.3000       15.249927     0.086591355
       4668.7900       15.170268     0.086349149
       4669.2800       15.189505     0.086358271
       4669.7700       15.309599     0.086687521
       4670.2600       15.155972     0.086243985
       4670.7500       15.070041     0.085960879
       4671.2400       15.133427     0.086118699
       4671.7300       15.208804     0.086303415
       4672.2200       15.103380     0.085981028
       4672.7100       15.053685     0.085829416
       4673.2000       14.994652     0.085654081
       4673.6900       14.968199     0.085559274
       4674.1800       14.982673     0.085550924
       4674.6700       14.958582     0.085470766
       4675.1600       14.928397     0.085370634
       4675.6500       14.984168     0.085501857
       4676.1400       15.003597     0.085531640
       4676.6300       14.924415     0.085279138
       4677.1200       14.896348     0.085210069
       4677.6100       14.950246     0.085330017
       4678.1000       15.005506     0.085395962
       4678.5900       14.969299     0.085241081
       4679.0800       14.943757     0.085160771
       4679.5700       14.845439     0.084832525
       4680.0600       14.800985     0.084715578
       4680.5500       14.716127     0.084488966
       4681.0400       14.815979     0.084721607
       4681.5300       14.830651     0.084717816
       4682.0200       14.859680     0.084781754
       4682.5100       14.814493     0.084627398
       4683.0000       14.871206     0.084764191
       4683.4900       14.981510     0.085074113
       4683.9800       14.934394     0.084908109
       4684.4700       14.929422     0.084844123
       4684.9600       14.982676     0.084982855
       4685.4500       14.954758     0.084859563
       4685.9400       14.939781     0.084788378
       4686.4300       14.950044     0.084775385
       4686.9200       14.920457     0.084695793
       4687.4100       14.884935     0.084583375
       4687.9000       14.913605     0.084622533
       4688.3900       14.917831     0.084613217
       4688.8800       14.823702     0.084311917
       4689.3700       14.769900     0.084134737
       4689.8600       14.869617     0.084419312
       4690.3500       14.978314     0.084703971
       4690.8400       15.023885     0.084806925
       4691.3300       14.965569     0.084615438
       4691.8200       14.835648     0.084254025
       4692.3100       14.798791     0.084139964
       4692.8000       14.919977     0.084424296
       4693.2900       14.930360     0.084419588
       4693.7800       14.834546     0.084141500
       4694.2700       14.876356     0.084251703
       4694.7600       14.875749     0.084238906
       4695.2500       14.806933     0.084025718
       4695.7400       14.846657     0.084098848
       4696.2300       14.853217     0.084097072
       4696.7200       14.793302     0.083923814
       4697.2100       14.758549     0.083798759
       4697.7000       14.729173     0.083695835
       4698.1900       14.726184     0.083656193
       4698.6800       14.778124     0.083772833
       4699.1700       14.856684     0.083974818
       4699.6600       14.881329     0.084009475
       4700.1500       14.805716     0.083787189
       4700.6400       14.835038     0.083859688
       4701.1300       14.828238     0.083823821
       4701.6200       14.669433     0.083355953
       4702.1100       14.748670     0.083545105
       4702.6000       14.843485     0.083795865
       4703.0900       14.861422     0.083837459
       4703.5800       14.901332     0.083939399
       4704.0700       14.850203     0.083761289
       4704.5600       14.723699     0.083384394
       4705.0500       14.755782     0.083469418
       4705.5400       14.846828     0.083692535
       4706.0300       14.796097     0.083476898
       4706.5200       14.715993     0.083260876
       4707.0100       14.705954     0.083257325
       4707.5000       14.785512     0.083461159
       4707.9900       14.807341     0.083496642
       4708.4800       14.788436     0.083407019
       4708.9700       14.754893     0.083306782
       4709.4600       14.574571     0.082783650
       4709.9500       14.600417     0.082827599
       4710.4400       14.704931     0.083112252
       4710.9300       14.606419     0.082790164
       4711.4200       14.689978     0.082995242
       4711.9100       14.659612     0.082900371
       4712.4000       14.590537     0.082690231
       4712.8900       14.578032     0.082617015
       4713.3800       14.558906     0.082567938
       4713.8700       14.657077     0.082796631
       4714.3600       14.563510     0.082531832
       4714.8500       14.478767     0.082266416
       4715.3400       14.578601     0.082530460
       4715.8300       14.579031     0.082511705
       4716.3200       14.613534     0.082547723
       4716.8100       14.541179     0.082371225
       4717.3000       14.624672     0.082586706
       4717.7900       14.626495     0.082565710
       4718.2800       14.597853     0.082455169
       4718.7700       14.537737     0.082262782
       4719.2600       14.530650     0.082204789
       4719.7500       14.420124     0.081875959
       4720.2400       14.530587     0.082140270
       4720.7300       14.625937     0.082375704
       4721.2200       14.679914     0.082560377
       4721.7100       14.510228     0.082063015
       4722.2000       14.367454     0.081654400
       4722.6900       14.358086     0.081575648
       4723.1800       14.509356     0.082015726
       4723.6700       14.371107     0.081582957
       4724.1600       14.456350     0.081783434
       4724.6500       14.393576     0.081599507
       4725.1400       14.310571     0.081320035
       4725.6300       14.406721     0.081561707
       4726.1200       14.474693     0.081756292
       4726.6100       14.567562     0.081993137
       4727.1000       14.369493     0.081460564
       4727.5900       14.427770     0.081590119
       4728.0800       14.478623     0.081740742
       4728.5700       14.472712     0.081692345
       4729.0600       14.428183     0.081530102
       4729.5500       14.509607     0.081699788
       4730.0400       14.609988     0.081905060
       4730.5300       14.592719     0.081841017
       4731.0200       14.574178     0.081735094
       4731.5100       14.463844     0.081431152
       4732.0000       14.341673     0.081117324
       4732.4900       14.374269     0.081171023
       4732.9800       14.350020     0.081126353
       4733.4700       14.325520     0.081057534
       4733.9600       14.283987     0.080892848
       4734.4500       14.333162     0.080971002
       4734.9400       14.403103     0.081128291
       4735.4300       14.401096     0.081087413
       4735.9200       14.363720     0.080961892
       4736.4100       14.332452     0.080892504
       4736.9000       14.405285     0.081119358
       4737.3900       14.451379     0.081227765
       4737.8800       14.480005     0.081242926
       4738.3700       14.698023     0.081807869
       4738.8600       14.995081     0.082599841
       4739.3500       15.107672     0.082902732
       4739.8400       15.197267     0.083175847
       4740.3300       15.245040     0.083300398
       4740.8200       15.090462     0.082872245
       4741.3100       14.870579     0.082224409
       4741.8000       14.688494     0.081674957
       4742.2900       14.629356     0.081509756
       4742.7800       14.510765     0.081222012
       4743.2700       14.458323     0.081096704
       4743.7600       14.519247     0.081227159
       4744.2500       14.473951     0.081040637
       4744.7400       14.371743     0.080712488
       4745.2300       14.298176     0.080467215
       4745.7200       14.222018     0.080245722
       4746.2100       14.199878     0.080172481
       4746.7000       14.197103     0.080135329
       4747.1900       14.170126     0.080036005
       4747.6800       14.179291     0.080045334
       4748.1700       14.217424     0.080140213
       4748.6600       14.190766     0.080052944
       4749.1500       14.267950     0.080243818
       4749.6400       14.239593     0.080158632
       4750.1300       14.226414     0.080122177
       4750.6200       14.368861     0.080498686
       4751.1100       14.356354     0.080465755
       4751.6000       14.273924     0.080240826
       4752.0900       14.210273     0.080068357
       4752.5800       14.190033     0.079987196
       4753.0700       14.234774     0.080079339
       4753.5600       14.196795     0.079997491
       4754.0500       14.214643     0.079806780
       4754.5400       14.324283     0.079831141
       4755.0300       14.191343     0.086199869
       4755.5200       14.066978     0.087752919
       4756.0100       14.149718     0.080081689
       4756.5000       14.231828     0.079553968
       4756.9900       14.191774     0.079882961
       4757.4800       14.175971     0.079741922
       4757.9700       14.289450     0.080043987
       4758.4600       14.274675     0.080005250
       4758.9500       14.239130     0.079890257
       4759.4400       14.307725     0.080045496
       4759.9300       14.324304     0.080088676
       4760.4200       14.281415     0.079979315
       4760.9100       14.209596     0.079770098
       4761.4000       14.287294     0.079950515
       4761.8900       14.314156     0.080026366
       4762.3800       14.261519     0.079878694
       4762.8700       14.169815     0.079594773
       4763.3600       14.141744     0.079497531
       4763.8500       14.222080     0.079707574
       4764.3400       14.301090     0.079910414
       4764.8300       14.198960     0.079609223
       4765.3200       14.298422     0.079892008
       4765.8100       14.259014     0.079759781
       4766.3000       14.164863     0.079449970
       4766.7900       14.229697     0.079621901
       4767.2800       14.175154     0.079488981
       4767.7700       14.289651     0.079772484
       4768.2600       14.284348     0.079754639
       4768.7500       14.293510     0.079773416
       4769.2400       14.243844     0.079629428
       4769.7300       14.363941     0.079969416
       4770.2200       14.351454     0.079932102
       4770.7100       14.466434     0.080204582
       4771.2000       14.420231     0.080084921
       4771.6900       14.393257     0.080016718
       4772.1800       14.408869     0.080005730
       4772.6700       14.357125     0.079827916
       4773.1600       14.331640     0.079742608
       4773.6500       14.386219     0.079898896
       4774.1400       14.423692     0.079993295
       4774.6300       14.440161     0.080004982
       4775.1200       14.380333     0.079841680
       4775.6100       14.322249     0.079641762
       4776.1000       14.359111     0.079766933
       4776.5900       14.407708     0.079893435
       4777.0800       14.267559     0.079438706
       4777.5700       14.298508     0.079517167
       4778.0600       14.475469     0.080013401
       4778.5500       14.454567     0.079925713
       4779.0400       14.319587     0.079578078
       4779.5300       14.393055     0.079754853
       4780.0200       14.366993     0.079635297
       4780.5100       14.354209     0.079571628
       4781.0000       14.475748     0.079894795
       4781.4900       14.444204     0.079789577
       4781.9800       14.362687     0.079546013
       4782.4700       14.401798     0.079609270
       4782.9600       14.494614     0.079812965
       4783.4500       14.404905     0.079566904
       4783.9400       14.397128     0.079521060
       4784.4300       14.418801     0.079571112
       4784.9200       14.347772     0.079352647
       4785.4100       14.347517     0.079363535
       4785.9000       14.278672     0.079133060
       4786.3900       14.310336     0.079189702
       4786.8800       14.411650     0.079477290
       4787.3700       14.522193     0.079755997
       4787.8600       14.447062     0.079539313
       4788.3500       14.369392     0.079305832
       4788.8400       14.396935     0.079356189
       4789.3300       14.456306     0.079481831
       4789.8200       14.383077     0.079274713
       4790.3100       14.422937     0.079376508
       4790.8000       14.444608     0.079441989
       4791.2900       14.473137     0.079473382
       4791.7800       14.387886     0.079248249
       4792.2700       14.389625     0.079233505
       4792.7600       14.444544     0.079366679
       4793.2500       14.471634     0.079420422
       4793.7400       14.425938     0.079257620
       4794.2300       14.289556     0.078888269
       4794.7200       14.351164     0.079010916
       4795.2100       14.390847     0.079077914
       4795.7000       14.414477     0.079132294
       4796.1900       14.429838     0.079175268
       4796.6800       14.415631     0.079112515
       4797.1700       14.362726     0.078944213
       4797.6600       14.351673     0.078902214
       4798.1500       14.282879     0.078695974
       4798.6400       14.321202     0.078771516
       4799.1300       14.366825     0.078844270
       4799.6200       14.380984     0.078876786
       4800.1100       14.342062     0.078752012
       4800.6000       14.263001     0.078526727
       4801.0900       14.332591     0.078699235
       4801.5800       14.274259     0.078510284
       4802.0700       14.181797     0.078244228
       4802.5600       14.270113     0.078471162
       4803.0500       14.301135     0.078551243
       4803.5400       14.267186     0.078456298
       4804.0300       14.165910     0.078164298
       4804.5200       14.262576     0.078387917
       4805.0100       14.391407     0.078705416
       4805.5000       14.403673     0.078733796
       4805.9900       14.362033     0.078591520
       4806.4800       14.278690     0.078335954
       4806.9700       14.297157     0.078366891
       4807.4600       14.351648     0.078505894
       4807.9500       14.248298     0.078221062
       4808.4400       14.191071     0.078047210
       4808.9300       14.272243     0.078258203
       4809.4200       14.242873     0.078141089
       4809.9100       14.232832     0.078075800
       4810.4000       14.307569     0.078273901
       4810.8900       14.315574     0.078295893
       4811.3800       14.212202     0.078014300
       4811.8700       14.190974     0.077952316
       4812.3600       14.200744     0.077960622
       4812.8500       14.114664     0.077690422
       4813.3400       14.171596     0.077830832
       4813.8300       14.284485     0.078123933
       4814.3200       14.295976     0.078120685
       4814.8100       14.140830     0.077712945
       4815.3000       14.122733     0.077677063
       4815.7900       14.172768     0.077784343
       4816.2800       14.091000     0.077532122
       4816.7700       14.123109     0.077622521
       4817.2600       14.187371     0.077759879
       4817.7500       14.169556     0.077683934
       4818.2400       14.100432     0.077486077
       4818.7300       14.133368     0.077565070
       4819.2200       14.129009     0.077546158
       4819.7100       14.176027     0.077664282
       4820.2000       14.153199     0.077598225
       4820.6900       14.191825     0.077682120
       4821.1800       14.172016     0.077606409
       4821.6700       14.072551     0.077321541
       4822.1600       14.110044     0.077413117
       4822.6500       14.185204     0.077601461
       4823.1400       14.155581     0.077480403
       4823.6300       14.195585     0.077564229
       4824.1200       14.158970     0.077463275
       4824.6100       14.202631     0.077580629
       4825.1000       14.190401     0.077504176
       4825.5900       14.258082     0.077649367
       4826.0800       14.254318     0.077659793
       4826.5700       14.118925     0.077275911
       4827.0600       14.088450     0.077195259
       4827.5500       14.134284     0.077298428
       4828.0400       14.146425     0.077282108
       4828.5300       14.162717     0.077315860
       4829.0200       14.112326     0.077154593
       4829.5100       14.149281     0.077239048
       4830.0000       14.110076     0.077113167
       4830.4900       14.131664     0.077196126
       4830.9800       14.158019     0.077236554
       4831.4700       14.110967     0.077076079
       4831.9600       14.114088     0.077077691
       4832.4500       14.173377     0.077243964
       4832.9400       14.156088     0.077201271
       4833.4300       14.225963     0.077343974
       4833.9200       14.147171     0.077094405
       4834.4100       14.118627     0.076972422
       4834.9000       14.129154     0.076994425
       4835.3900       14.182923     0.077138786
       4835.8800       14.242138     0.077268190
       4836.3700       14.310320     0.077440219
       4836.8600       14.230356     0.077221680
       4837.3500       14.193818     0.077086320
       4837.8400       14.118487     0.076882094
       4838.3300       14.218615     0.077176944
       4838.8200       14.172836     0.077055234
       4839.3100       14.182483     0.077022890
       4839.8000       14.221708     0.077129278
       4840.2900       14.269654     0.077223455
       4840.7800       14.258394     0.077140112
       4841.2700       14.259458     0.077143833
       4841.7600       14.243825     0.077074437
       4842.2500       14.411041     0.077498242
       4842.7400       14.356218     0.077358230
       4843.2300       14.338403     0.077307112
       4843.7200       14.315587     0.077200814
       4844.2100       14.463367     0.077574132
       4844.7000       14.392465     0.077369761
       4845.1900       14.357491     0.077294286
       4845.6800       14.354126     0.077253923
       4846.1700       14.404707     0.077378217
       4846.6600       14.429430     0.077492506
       4847.1500       14.397964     0.077362993
       4847.6400       14.394482     0.077306612
       4848.1300       14.404310     0.077333233
       4848.6200       14.458758     0.077447579
       4849.1100       14.502711     0.077524126
       4849.6000       14.555983     0.077669465
       4850.0900       14.482725     0.077490354
       4850.5800       14.385589     0.077242589
       4851.0700       14.518059     0.077566180
       4851.5600       14.503059     0.077493018
       4852.0500       14.509646     0.077499015
       4852.5400       14.524541     0.077554659
       4853.0300       14.579421     0.077660420
       4853.5200       14.643557     0.077799832
       4854.0100       14.683876     0.077882184
       4854.5000       14.610582     0.077662768
       4854.9900       14.565862     0.077528244
       4855.4800       14.623747     0.077667571
       4855.9700       14.636645     0.077693476
       4856.4600       14.635993     0.077681839
       4856.9500       14.686773     0.077799782
       4857.4400       14.646069     0.077695043
       4857.9300       14.641150     0.077665310
       4858.4200       14.650098     0.077658160
       4858.9100       14.648798     0.077647751
       4859.4000       14.662155     0.077667010
       4859.8900       14.715758     0.077820371
       4860.3800       14.708825     0.077803377
       4860.8700       14.728303     0.077823219
       4861.3600       14.821029     0.078063836
       4861.8500       14.859594     0.078172013
       4862.3400       14.821775     0.078055866
       4862.8300       14.883655     0.078187796
       4863.3200       14.999209     0.078462885
       4863.8100       14.985489     0.078415117
       4864.3000       14.997983     0.078453975
       4864.7900       15.112083     0.078736069
       4865.2800       15.142694     0.078806171
       4865.7700       15.129829     0.078763975
       4866.2600       15.206075     0.078940142
       4866.7500       15.294646     0.079156752
       4867.2400       15.371648     0.079322240
       4867.7300       15.366188     0.079302418
       4868.2200       15.318351     0.079192228
       4868.7100       15.445172     0.079503287
       4869.2000       15.536158     0.079719355
       4869.6900       15.532961     0.079704423
       4870.1800       15.517263     0.079645432
       4870.6700       15.535345     0.079662289
       4871.1600       15.682040     0.080024966
       4871.6500       15.784581     0.080285540
       4872.1400       15.863371     0.080477774
       4872.6300       15.943845     0.080662030
       4873.1200       16.009947     0.080805747
       4873.6100       16.108014     0.081047630
       4874.1000       16.122843     0.081080669
       4874.5900       16.204040     0.081266443
       4875.0800       16.358779     0.081619763
       4875.5700       16.488024     0.081946281
       4876.0600       16.500183     0.081978108
       4876.5500       16.570528     0.082126991
       4877.0400       16.691470     0.082410566
       4877.5300       16.776175     0.082626278
       4878.0200       16.985996     0.083127306
       4878.5100       17.049978     0.083266647
       4879.0000       17.051170     0.083272661
       4879.4900       17.295973     0.083843077
       4879.9800       17.519834     0.084348530
       4880.4700       17.707156     0.084741143
       4880.9600       17.916593     0.085250011
       4881.4500       18.108492     0.085723793
       4881.9400       18.322907     0.086192759
       4882.4300       18.478794     0.086538320
       4882.9200       18.745421     0.087110740
       4883.4100       19.148627     0.088026376
       4883.9000       19.558912     0.088951902
       4884.3900       20.111356     0.090170104
       4884.8800       20.745285     0.091551130
       4885.3700       21.689658     0.093593114
       4885.8600       22.956408     0.096260094
       4886.3500       24.679712     0.099821238
       4886.8400       27.379774      0.10513345
       4887.3300       31.424390      0.11242573
       4887.8200       36.533190      0.12117611
       4888.3100       41.914102      0.12971858
       4888.8000       46.466093      0.13656209
       4889.2900       48.781786      0.13991195
       4889.7800       48.522367      0.13951918
       4890.2700       45.248168      0.13471817
       4890.7600       39.695259      0.12615550
       4891.2500       32.902926      0.11488654
       4891.7400       27.302538      0.10468978
       4892.2300       24.039148     0.098258631
       4892.7200       22.345368     0.094772280
       4893.2100       21.302707     0.092547873
       4893.7000       20.709879     0.091261188
       4894.1900       20.256565     0.090264315
       4894.6800       19.980199     0.089623354
       4895.1700       19.618702     0.088773668
       4895.6600       19.370658     0.088210638
       4896.1500       19.255408     0.087951028
       4896.6400       19.009559     0.087393579
       4897.1300       18.777553     0.086815518
       4897.6200       18.490001     0.086132339
       4898.1100       18.280385     0.085642787
       4898.6000       18.132345     0.085300887
       4899.0900       18.002194     0.084981750
       4899.5800       17.888807     0.084692748
       4900.0700       17.852558     0.084600437
       4900.5600       17.660951     0.084148395
       4901.0500       17.424427     0.083583455
       4901.5400       17.372454     0.083411336
       4902.0300       17.215354     0.083026187
       4902.5200       17.123918     0.082813077
       4903.0100       17.066834     0.082662759
       4903.5000       16.990751     0.082479075
       4903.9900       16.907626     0.082282913
       4904.4800       16.736667     0.081882277
       4904.9700       16.684944     0.081731709
       4905.4600       16.583630     0.081447884
       4905.9500       16.559933     0.081380824
       4906.4400       16.446386     0.081100064
       4906.9300       16.269998     0.080650550
       4907.4200       16.267692     0.080641967
       4907.9100       16.196827     0.080465181
       4908.4000       16.073256     0.080153483
       4908.8900       16.098215     0.080204363
       4909.3800       16.125667     0.080250631
       4909.8700       16.010637     0.079950719
       4910.3600       15.912811     0.079695061
       4910.8500       15.893605     0.079628396
       4911.3400       15.840038     0.079482984
       4911.8300       15.719016     0.079173489
       4912.3200       15.620824     0.078918008
       4912.8100       15.637812     0.078960671
       4913.3000       15.547438     0.078730638
       4913.7900       15.480125     0.078551786
       4914.2800       15.457758     0.078488766
       4914.7700       15.419649     0.078389966
       4915.2600       15.347230     0.078206120
       4915.7500       15.245322     0.077953737
       4916.2400       15.234181     0.077891578
       4916.7300       15.287669     0.077985280
       4917.2200       15.242112     0.077870507
       4917.7100       15.248936     0.077890609
       4918.2000       15.243145     0.077872669
       4918.6900       15.180939     0.077702826
       4919.1800       15.123212     0.077528832
       4919.6700       15.050709     0.077309652
       4920.1600       15.011647     0.077202181
       4920.6500       15.023577     0.077242550
       4921.1400       15.066921     0.077358172
       4921.6300       15.043885     0.077295704
       4922.1200       15.063363     0.077334442
       4922.6100       15.041955     0.077279734
       4923.1000       14.896149     0.076904701
       4923.5900       14.942116     0.077012123
       4924.0800       14.944924     0.077019013
       4924.5700       14.777520     0.076580033
       4925.0600       14.755294     0.076492674
       4925.5500       14.829584     0.076667318
       4926.0400       14.806986     0.076607118
       4926.5300       14.745820     0.076446291
       4927.0200       14.790815     0.076537804
       4927.5100       14.742370     0.076416219
       4928.0000       14.652281     0.076175088
       4928.4900       14.723502     0.076323429
       4928.9800       14.685598     0.076220981
       4929.4700       14.621478     0.076041691
       4929.9600       14.660424     0.076122719
       4930.4500       14.644723     0.076097314
       4930.9400       14.620183     0.076041323
       4931.4300       14.653062     0.076114932
       4931.9200       14.582431     0.075914058
       4932.4100       14.536944     0.075764007
       4932.9000       14.572816     0.075852157
       4933.3900       14.574116     0.075877572
       4933.8800       14.607334     0.075963959
       4934.3700       14.552862     0.075802400
       4934.8600       14.491396     0.075636567
       4935.3500       14.550234     0.075801937
       4935.8400       14.557969     0.075816706
       4936.3300       14.594385     0.075885958
       4936.8200       14.536626     0.075744516
       4937.3100       14.407907     0.075421999
       4937.8000       14.462228     0.075504838
       4938.2900       14.428292     0.075388845
       4938.7800       14.357739     0.075217699
       4939.2700       14.424272     0.075377546
       4939.7600       14.418189     0.075338903
       4940.2500       14.399898     0.075280981
       4940.7400       14.404149     0.075319749
       4941.2300       14.415854     0.075330323
       4941.7200       14.396573     0.075261607
       4942.2100       14.430024     0.075332960
       4942.7000       14.329156     0.075062828
       4943.1900       14.353289     0.075099913
       4943.6800       14.421513     0.075277625
       4944.1700       14.379755     0.075175732
       4944.6600       14.405706     0.075230018
       4945.1500       14.443677     0.075311410
       4945.6400       14.341394     0.075033203
       4946.1300       14.341813     0.075029121
       4946.6200       14.416675     0.075233304
       4947.1100       14.443080     0.075283318
       4947.6000       14.489232     0.075390411
       4948.0900       14.562610     0.075593582
       4948.5800       14.793105     0.076151950
       4949.0700       14.906545     0.076430087
       4949.5600       15.140530     0.077029188
       4950.0500       15.325011     0.077458818
       4950.5400       15.261802     0.077292715
       4951.0300       15.222312     0.077201324
       4951.5200       15.141783     0.077009104
       4952.0100       14.928114     0.076461315
       4952.5000       14.712009     0.075932475
       4952.9900       14.553119     0.075543067
       4953.4800       14.453688     0.075276342
       4953.9700       14.343802     0.074960720
       4954.4600       14.302952     0.074825064
       4954.9500       14.293455     0.074798098
       4955.4400       14.213657     0.074565305
       4955.9300       14.083291     0.074211213
       4956.4200       14.071033     0.074171504
       4956.9100       14.179156     0.074437885
       4957.4000       14.209938     0.074515480
       4957.8900       14.237077     0.074568892
       4958.3800       14.258328     0.074622042
       4958.8700       14.076554     0.074166289
       4959.3600       14.022093     0.074010157
       4959.8500       14.071382     0.074134598
       4960.3400       14.079942     0.074148450
       4960.8300       14.118377     0.074228885
       4961.3200       14.076113     0.074174886
       4961.8100       14.026412     0.073626998
       4962.3000       13.940029     0.075443998
       4962.7900       13.870482     0.076922302
       4963.2800       13.955015     0.074374612
       4963.7700       13.983134     0.073660447
       4964.2600       13.998606     0.073926887
       4964.7500       13.961367     0.073821397
       4965.2400       13.960102     0.073812196
       4965.7300       13.940961     0.073755608
       4966.2200       13.877530     0.073598386
       4966.7100       13.971740     0.073823824
       4967.2000       14.055735     0.074031921
       4967.6900       13.962557     0.073790346
       4968.1800       13.888352     0.073581323
       4968.6700       13.896964     0.073600438
       4969.1600       13.889975     0.073579283
       4969.6500       13.874534     0.073526387
       4970.1400       13.838873     0.073445781
       4970.6300       13.819841     0.073421651
       4971.1200       13.813545     0.073399989
       4971.6100       13.811182     0.073366570
       4972.1000       13.784909     0.073295598
       4972.5900       13.766408     0.073255966
       4973.0800       13.794285     0.073323332
       4973.5700       13.759464     0.073229633
       4974.0600       13.761076     0.073236802
       4974.5500       13.817769     0.073385584
       4975.0400       13.798945     0.073328585
       4975.5300       13.751517     0.073194560
       4976.0200       13.732487     0.073147416
       4976.5100       13.714550     0.073114215
       4977.0000       13.692754     0.073074582
       4977.4900       13.663703     0.073012081
       4977.9800       13.679318     0.073051415
       4978.4700       13.699879     0.073102962
       4978.9600       13.701337     0.073128834
       4979.4500       13.770122     0.073331804
       4979.9400       13.747609     0.073266388
       4980.4300       13.648196     0.072977222
       4980.9200       13.683525     0.073047050
       4981.4100       13.752662     0.073230249
       4981.9000       13.742239     0.073220345
       4982.3900       13.699736     0.073121243
       4982.8800       13.675656     0.073052241
       4983.3700       13.613727     0.072872250
       4983.8600       13.547853     0.072685185
       4984.3500       13.644702     0.072934410
       4984.8400       13.666960     0.072961021
       4985.3300       13.597808     0.072753217
       4985.8200       13.631285     0.072832473
       4986.3100       13.622676     0.072798624
       4986.8000       13.526933     0.072559939
       4987.2900       13.583187     0.072705575
       4987.7800       13.727749     0.073059680
       4988.2700       13.771758     0.073165866
       4988.7600       13.690803     0.072943481
       4989.2500       13.610475     0.072694116
       4989.7400       13.610685     0.072674221
       4990.2300       13.652103     0.072805701
       4990.7200       13.720566     0.072990823
       4991.2100       13.769560     0.073140716
       4991.7000       13.659388     0.072835692
       4992.1900       13.605480     0.072626296
       4992.6800       13.651430     0.072735594
       4993.1700       13.701249     0.072869733
       4993.6600       13.672933     0.072796767
       4994.1500       13.599695     0.072622590
       4994.6400       13.701443     0.072872697
       4995.1300       13.732396     0.072916827
       4995.6200       13.591054     0.072538397
       4996.1100       13.600054     0.072560920
       4996.6000       13.677204     0.072750457
       4997.0900       13.600508     0.072551900
       4997.5800       13.567489     0.072458393
       4998.0700       13.619803     0.072583717
       4998.5600       13.663097     0.072711255
       4999.0500       13.646369     0.072663487
       4999.5400       13.601034     0.072518129
       5000.0300       13.569211     0.072412611
       5000.5200       13.608250     0.072517679
       5001.0100       13.631818     0.072601078
       5001.5000       13.572757     0.072453773
       5001.9900       13.634342     0.072598774
       5002.4800       13.595146     0.072467691
       5002.9700       13.573659     0.072419523
       5003.4600       13.687402     0.072721521
       5003.9500       13.565791     0.072396243
       5004.4400       13.531136     0.072299035
       5004.9300       13.619817     0.072545791
       5005.4200       13.554506     0.072358112
       5005.9100       13.617182     0.072515776
       5006.4000       13.589064     0.072460886
       5006.8900       13.524665     0.072279619
       5007.3800       13.718362     0.072774062
       5007.8700       13.702610     0.072741835
       5008.3600       13.620537     0.072521304
       5008.8500       13.590158     0.072431115
       5009.3400       13.628743     0.072551406
       5009.8300       13.604943     0.072484402
       5010.3200       13.485245     0.072149021
       5010.8100       13.571200     0.072360211
       5011.3000       13.624990     0.072491367
       5011.7900       13.584625     0.072392948
       5012.2800       13.569673     0.072362064
       5012.7700       13.499629     0.072166422
       5013.2600       13.371773     0.071837796
       5013.7500       13.487082     0.072159526
       5014.2400       13.619142     0.072479569
       5014.7300       13.596146     0.072429016
       5015.2200       13.553649     0.072335115
       5015.7100       13.598065     0.072447301
       5016.2000       13.579936     0.072377107
       5016.6900       13.596427     0.072443135
       5017.1800       13.639861     0.072590893
       5017.6700       13.595530     0.072440780
       5018.1600       13.607734     0.072436867
       5018.6500       13.575608     0.072369058
       5019.1400       13.549511     0.072329767
       5019.6300       13.561840     0.072364881
       5020.1200       13.535853     0.072295303
       5020.6100       13.581225     0.072427075
       5021.1000       13.611586     0.072498940
       5021.5900       13.582266     0.072391785
       5022.0800       13.508483     0.072185378
       5022.5700       13.538662     0.072276928
       5023.0600       13.572285     0.072355305
       5023.5500       13.570504     0.072353909
       5024.0400       13.622055     0.072490364
       5024.5300       13.606179     0.072455426
       5025.0200       13.590902     0.072421711
       5025.5100       13.579469     0.072383733
       5026.0000       13.542074     0.072272026
       5026.4900       13.569644     0.072339652
       5026.9800       13.637347     0.072538995
       5027.4700       13.611142     0.072458603
       5027.9600       13.573766     0.072427388
       5028.4500       13.588174     0.072578594
       5028.9400       13.557012     0.072420367
       5029.4300       13.574400     0.072391315
       5029.9200       13.694924     0.072719472
       5030.4100       13.720745     0.072776675
       5030.9000       13.660528     0.072609961
       5031.3900       13.597611     0.072457477
       5031.8800       13.626750     0.072544894
       5032.3700       13.697098     0.072714419
       5032.8600       13.650650     0.072595250
       5033.3500       13.617844     0.072513526
       5033.8400       13.601266     0.072452881
       5034.3300       13.548152     0.072304141
       5034.8200       13.561056     0.072340776
       5035.3100       13.634218     0.072538323
       5035.8000       13.669601     0.072631102
       5036.2900       13.644798     0.072577652
       5036.7800       13.620960     0.072532916
       5037.2700       13.631552     0.072548654
       5037.7600       13.700181     0.072709806
       5038.2500       13.762836     0.072890442
       5038.7400       13.767701     0.072906811
       5039.2300       13.810663     0.073001955
       5039.7200       13.906251     0.073257036
       5040.2100       13.906428     0.073260703
       5040.7000       13.912051     0.073260809
       5041.1900       13.996928     0.073475832
       5041.6800       14.074567     0.073679322
       5042.1700       14.293881     0.074282914
       5042.6600       14.666564     0.075240256
       5043.1500       15.127773     0.076394075
       5043.6400       15.657782     0.077724633
       5044.1300       16.125058     0.078869696
       5044.6200       16.207803     0.079056207
       5045.1100       16.026402     0.078613945
       5045.6000       15.784134     0.078029843
       5046.0900       15.346380     0.076938744
       5046.5800       14.883796     0.075793835
       5047.0700       14.473789     0.074746027
       5047.5600       14.143605     0.073893143
       5048.0500       14.075295     0.073725238
       5048.5400       14.028748     0.073617426
       5049.0300       13.892647     0.073248154
       5049.5200       13.829724     0.073079738
       5050.0100       13.781518     0.072962481
       5050.5000       13.689679     0.072755464
       5050.9900       13.668050     0.072675367
       5051.4800       13.695516     0.072715246
       5051.9700       13.634069     0.072577713
       5052.4600       13.611764     0.072526299
       5052.9500       13.612872     0.072531398
       5053.4400       13.543890     0.072353015
       5053.9300       13.583683     0.072454733
       5054.4200       13.597615     0.072490760
       5054.9100       13.524912     0.072276424
       5055.4000       13.552315     0.072365747
       5055.8900       13.569407     0.072426069
       5056.3800       13.664616     0.072662052
       5056.8700       13.588665     0.072473875
       5057.3600       13.489819     0.072214287
       5057.8500       13.602802     0.072537412
       5058.3400       13.502796     0.072289879
       5058.8300       13.367493     0.071912046
       5059.3200       13.550362     0.072385804
       5059.8100       13.493276     0.072248702
       5060.3000       13.483425     0.072233992
       5060.7900       13.478565     0.072219220
       5061.2800       13.570477     0.072468163
       5061.7700       13.623288     0.072590363
       5062.2600       13.553024     0.072421434
       5062.7500       13.566364     0.072473986
       5063.2400       13.442489     0.072144350
       5063.7300       13.391535     0.072041400
       5064.2200       13.428523     0.072158978
       5064.7100       13.480008     0.072269146
       5065.2000       13.503497     0.072302710
       5065.6900       13.451048     0.072176500
       5066.1800       13.489229     0.072277536
       5066.6700       13.419722     0.072076743
       5067.1600       13.324275     0.071841460
       5067.6500       13.344631     0.071903571
       5068.1400       13.475880     0.072263297
       5068.6300       13.602175     0.072616756
       5069.1200       13.581050     0.072580084
       5069.6100       13.563075     0.072556783
       5070.1000       13.562076     0.072560343
       5070.5900       13.530756     0.072443694
       5071.0800       13.476058     0.072259325
       5071.5700       13.430835     0.072134403
       5072.0600       13.489506     0.072291071
       5072.5500       13.386115     0.072011687
       5073.0400       13.350402     0.071906273
       5073.5300       13.443616     0.072158609
       5074.0200       13.451613     0.072203879
       5074.5100       13.440268     0.072187246
       5075.0000       13.548195     0.072488123
       5075.4900       13.514931     0.072428526
       5075.9800       13.498785     0.072392233
       5076.4700       13.557399     0.072516515
       5076.9600       13.561181     0.072520100
       5077.4500       13.547330     0.072485270
       5077.9400       13.574185     0.072579818
       5078.4300       13.580123     0.072587868
       5078.9200       13.543283     0.072479829
       5079.4100       13.468310     0.072297315
       5079.9000       13.414103     0.072182331
       5080.3900       13.418257     0.072251235
       5080.8800       13.356463     0.072158999
       5081.3700       13.318423     0.072064473
       5081.8600       13.379975     0.072173599
       5082.3500       13.391846     0.072202076
       5082.8400       13.425900     0.072319406
       5083.3300       13.511825     0.072566301
       5083.8200       13.536171     0.072607196
       5084.3100       13.562016     0.072666727
       5084.8000       13.571774     0.072733403
       5085.2900       13.530841     0.072648482
       5085.7800       13.507899     0.072585627
       5086.2700       13.525788     0.072652822
       5086.7600       13.506440     0.072603504
       5087.2500       13.417692     0.072316975
       5087.7400       13.358624     0.072104686
       5088.2300       13.357457     0.072082567
       5088.7200       13.300535     0.071945241
       5089.2100       13.216731     0.071637286
       5089.7000       13.239965     0.071926751
       5090.1900       13.244152     0.072935256
       5090.6800       13.201912     0.072540981
       5091.1700       13.270925     0.071730726
       5091.6600       13.345026     0.072024595
       5092.1500       13.282432     0.071883897
       5092.6400       13.221394     0.071723112
       5093.1300       13.241840     0.071770585
       5093.6200       13.219016     0.071729620
       5094.1100       13.189529     0.071667367
       5094.6000       13.204725     0.071706355
       5095.0900       13.147761     0.071551194
       5095.5800       13.086936     0.071400487
       5096.0700       13.165919     0.071628049
       5096.5600       13.217161     0.071761761
       5097.0500       13.263953     0.071883987
       5097.5400       13.201388     0.071709786
       5098.0300       13.145609     0.071585017
       5098.5200       13.172105     0.071688358
       5099.0100       13.172055     0.071705451
       5099.5000       13.218253     0.071831045
       5099.9900       13.257646     0.071908695
       5100.4800       13.212545     0.071803567
       5100.9700       13.166010     0.071681779
       5101.4600       13.242564     0.071843596
       5101.9500       13.223929     0.071765354
       5102.4400       13.200020     0.071722918
       5102.9300       13.180308     0.071678180
       5103.4200       13.232700     0.071806233
       5103.9100       13.308510     0.072020230
       5104.4000       13.279922     0.071923538
       5104.8900       13.234086     0.071822113
       5105.3800       13.317076     0.072054384
       5105.8700       13.150570     0.071617603
       5106.3600       13.069235     0.071405227
       5106.8500       13.140337     0.071567810
       5107.3400       13.206085     0.071776450
       5107.8300       13.105088     0.071539817
       5108.3200       13.044885     0.071351217
       5108.8100       13.039122     0.071327775
       5109.3000       13.049466     0.071369434
       5109.7900       13.034218     0.071318393
       5110.2800       12.988829     0.071188428
       5110.7700       13.042728     0.071351955
       5111.2600       13.037284     0.071347193
       5111.7500       13.051801     0.071417146
       5112.2400       13.092309     0.071526098
       5112.7300       13.122495     0.071600702
       5113.2200       12.992059     0.071243109
       5113.7100       12.973034     0.071192415
       5114.2000       13.067217     0.071440012
       5114.6900       13.010410     0.071293025
       5115.1800       13.001109     0.071290810
       5115.6700       13.097564     0.071553652
       5116.1600       12.969549     0.071192836
       5116.6500       12.957013     0.071155097
       5117.1400       13.096702     0.071568074
       5117.6300       13.131999     0.071678900
       5118.1200       12.975047     0.071239762
       5118.6100       12.869432     0.070950429
       5119.1000       12.896633     0.071013309
       5119.5900       13.017990     0.071352142
       5120.0800       13.009693     0.071330279
       5120.5700       12.937463     0.071132428
       5121.0600       12.885034     0.070979591
       5121.5500       12.926505     0.071098006
       5122.0400       12.864244     0.070942809
       5122.5300       12.900205     0.071025483
       5123.0200       12.956300     0.071184736
       5123.5100       13.045769     0.071435130
       5124.0000       13.042551     0.071435850
       5124.4900       12.904042     0.071052059
       5124.9800       12.991910     0.071292479
       5125.4700       12.979915     0.071288400
       5125.9600       13.025048     0.071403243
